Data from Subt2_00004.txt Node
Date: Mon Aug 28 12:03:12 MSK 2023
User: vat
Spectrometer: MAYP114033
Trigger mode: 0
Integration Time (sec): 1,000000E0
Scans to average: 5
Electric dark correction enabled: true
Nonlinearity correction enabled: false
Boxcar width: 3
XAxis mode: Wavelengths
Number of Pixels in Spectrum: 2068
>>>>>Begin Spectral Data<<<<<
199,4	0,667
199,9	6,527
200,4	16,433
200,8	16,767
201,3	20,024
201,8	23,852
202,2	27,081
202,7	31,452
203,2	27,91
203,6	23,652
204,1	26,624
204,6	26,138
205	30,91
205,5	30,681
206	30,881
206,4	31,281
206,9	29,824
207,4	27,938
207,8	29,538
208,3	24,11
208,8	27,538
209,2	30,31
209,7	33,224
210,2	34,624
210,6	33,967
211,1	35,367
211,5	38,481
212	34,681
212,5	33,652
212,9	39,424
213,4	40,138
213,9	42,395
214,3	42,281
214,8	39,995
215,3	44,652
215,7	41,881
216,2	39,024
216,7	40,452
217,1	40,967
217,6	38,51
218,1	38,767
218,5	43,195
219	47,967
219,5	49,595
219,9	46,31
220,4	47,338
220,9	45,624
221,3	48,938
221,8	44,424
222,3	42,024
222,7	38,11
223,2	40,624
223,6	45,138
224,1	49,967
224,6	54,281
225	53,138
225,5	51,081
226	53,481
226,4	50,624
226,9	43,767
227,4	44,738
227,8	35,681
228,3	32,195
228,8	37,224
229,2	41,224
229,7	42,567
230,2	43,252
230,6	43,51
231,1	45,167
231,5	47,538
232	41,738
232,5	36,595
232,9	36,738
233,4	41,481
233,9	38,395
234,3	37,995
234,8	39,938
235,3	43,024
235,7	42,995
236,2	41,052
236,7	37,395
237,1	34,624
237,6	37,624
238,1	34,938
238,5	38,681
239	39,338
239,4	44,995
239,9	43,567
240,4	49,624
240,8	49,71
241,3	59,081
241,8	50,71
242,2	49,424
242,7	49,11
243,2	52,71
243,6	49,995
244,1	49,795
244,6	39,71
245	46,852
245,5	49,481
245,9	51,224
246,4	49,795
246,9	53,881
247,3	54,395
247,8	54,024
248,3	53,452
248,7	51,481
249,2	44,938
249,7	44,452
250,1	43,081
250,6	38,424
251	45,824
251,5	42,71
252	41,538
252,4	46,052
252,9	44,138
253,4	41,938
253,8	42,081
254,3	35,881
254,8	37,91
255,2	43,252
255,7	41,71
256,1	42,538
256,6	44,824
257,1	49,167
257,5	51,538
258	49,11
258,5	44,681
258,9	42,824
259,4	42,995
259,9	45,738
260,3	44,31
260,8	40,281
261,2	40,281
261,7	38,395
262,2	39,71
262,6	37,252
263,1	27,538
263,6	24,224
264	25,538
264,5	22,11
264,9	26,71
265,4	22,481
265,9	26,367
266,3	34,367
266,8	35,195
267,3	33,31
267,7	35,338
268,2	37,138
268,7	37,281
269,1	34,738
269,6	33,738
270	37,052
270,5	42,51
271	45,852
271,4	45,51
271,9	47,252
272,4	49,767
272,8	44,795
273,3	42,167
273,7	35,481
274,2	36,995
274,7	35,081
275,1	35,224
275,6	33,195
276,1	34,538
276,5	32,338
277	36,452
277,4	31,51
277,9	31,252
278,4	34,538
278,8	33,795
279,3	32,938
279,8	41,824
280,2	40,938
280,7	43,481
281,1	44,624
281,6	42,424
282,1	41,452
282,5	44,824
283	43,138
283,4	45,052
283,9	44,338
284,4	37,624
284,8	37,11
285,3	36,91
285,8	35,824
286,2	33,281
286,7	33,852
287,1	33,967
287,6	35,652
288,1	35,367
288,5	35,824
289	36,452
289,5	35,652
289,9	36,31
290,4	36,052
290,8	32,138
291,3	31,081
291,8	29,995
292,2	26,795
292,7	23,081
293,1	25,395
293,6	20,481
294,1	27,281
294,5	28,595
295	31,452
295,5	33,11
295,9	35,081
296,4	33,538
296,8	42,938
297,3	37,71
297,8	39,424
298,2	37,567
298,7	34,024
299,1	36,138
299,6	34,11
300,1	36,338
300,5	41,481
301	41,881
301,5	46,91
301,9	42,71
302,4	41,967
302,8	39,995
303,3	33,852
303,8	34,795
304,2	31,995
304,7	30,681
305,1	38,652
305,6	42,452
306,1	45,681
306,5	47,395
307	46,452
307,4	44,91
307,9	46,738
308,4	45,31
308,8	44,31
309,3	45,138
309,8	42,31
310,2	42,252
310,7	47,052
311,1	46,367
311,6	49,138
312,1	46,195
312,5	42,71
313	48,367
313,4	47,652
313,9	45,824
314,4	41,51
314,8	41,395
315,3	41,081
315,7	35,995
316,2	30,367
316,7	32,338
317,1	30,052
317,6	32,252
318	29,595
318,5	31,91
319	39,138
319,4	40,481
319,9	35,51
320,3	39,167
320,8	40,224
321,3	40,995
321,7	38,367
322,2	35,91
322,6	32,824
323,1	32,567
323,6	31,224
324	29,51
324,5	33,31
324,9	37,681
325,4	37,452
325,9	47,51
326,3	54,395
326,8	54,195
327,2	54,31
327,7	51,281
328,2	51,452
328,6	54,795
329,1	52,767
329,5	50,681
330	52,481
330,5	50,052
330,9	54,252
331,4	53,595
331,8	48,51
332,3	45,452
332,8	44,395
333,2	41,31
333,7	44,567
334,1	38,31
334,6	36,51
335,1	38,624
335,5	36,71
336	38,652
336,4	41,31
336,9	41,452
337,4	46,167
337,8	43,995
338,3	48,681
338,7	50,395
339,2	47,767
339,7	49,195
340,1	44,652
340,6	45,538
341	49,681
341,5	46,338
342	45,31
342,4	47,795
342,9	47,738
343,3	56,795
343,8	54,424
344,2	52,481
344,7	58,167
345,2	57,795
345,6	57,424
346,1	59,538
346,5	57,31
347	61,338
347,5	64,795
347,9	63,11
348,4	63,167
348,8	65,652
349,3	62,195
349,8	62,71
350,2	62,052
350,7	62,538
351,1	64,281
351,6	71,881
352	79,824
352,5	97,567
353	116,481
353,4	136,795
353,9	166,138
354,3	195,624
354,8	233,31
355,3	278,024
355,7	324,224
356,2	377,224
356,6	440,995
357,1	512,51
357,5	597,595
358	690,252
358,5	795,91
358,9	916,91
359,4	1054,281
359,8	1213,338
360,3	1393,224
360,8	1593,767
361,2	1817,195
361,7	2063,195
362,1	2328,91
362,6	2619,681
363	2932,024
363,5	3256,652
364	3605,51
364,4	3958,024
364,9	4316,052
365,3	4666,538
365,8	5004,967
366,3	5314,424
366,7	5596,452
367,2	5835,824
367,6	6039,51
368,1	6176,652
368,5	6276,652
369	6322,738
369,5	6325,367
369,9	6267,967
370,4	6168,052
370,8	6013,195
371,3	5841,452
371,7	5623,195
372,2	5377,452
372,7	5108,824
373,1	4834,081
373,6	4542,995
374	4263,852
374,5	3976,71
374,9	3703,995
375,4	3430,481
375,9	3175,967
376,3	2927,91
376,8	2693,71
377,2	2473,338
377,7	2269,652
378,2	2078,367
378,6	1909,31
379,1	1738,824
379,5	1594,024
380	1465,195
380,4	1343,11
380,9	1235,138
381,4	1132,167
381,8	1041,367
382,3	964,91
382,7	896,424
383,2	828,681
383,6	770,51
384,1	714,452
384,6	669,138
385	624,824
385,5	580,31
385,9	537,424
386,4	504,081
386,8	471,452
387,3	440,71
387,7	413,138
388,2	387,224
388,7	368,995
389,1	346,51
389,6	320,167
390	299,395
390,5	281,024
390,9	265,281
391,4	249,081
391,9	233,167
392,3	219,195
392,8	216,881
393,2	205,824
393,7	192,995
394,1	177,11
394,6	166,452
395,1	155,795
395,5	147,938
396	136,31
396,4	126,71
396,9	122,538
397,3	121,167
397,8	118,138
398,2	114,395
398,7	111,967
399,2	106,138
399,6	102,11
400,1	99,081
400,5	90,995
401	97,452
401,4	94,224
401,9	89,938
402,4	88,852
402,8	93,91
403,3	93,11
403,7	93,538
404,2	88,481
404,6	93,138
405,1	93,91
405,5	93,281
406	83,824
406,5	79,652
406,9	83,452
407,4	77,938
407,8	77,138
408,3	79,367
408,7	83,395
409,2	90,224
409,6	92,052
410,1	88,624
410,6	88,91
411	85,281
411,5	82,881
411,9	79,881
412,4	86,024
412,8	92,51
413,3	95,252
413,7	100,71
414,2	102,51
414,7	108,11
415,1	111,938
415,6	107,652
416	103,738
416,5	110,024
416,9	108,338
417,4	108,681
417,8	114,11
418,3	113,738
418,8	114,052
419,2	116,338
419,7	118,71
420,1	116,767
420,6	119,652
421	119,681
421,5	121,367
421,9	121,11
422,4	120,138
422,8	117,367
423,3	121,138
423,8	118,338
424,2	112,824
424,7	112,624
425,1	113,967
425,6	117,338
426	115,738
426,5	122,281
426,9	123,138
427,4	124,11
427,9	126,967
428,3	125,167
428,8	125,538
429,2	125,167
429,7	121,367
430,1	123,967
430,6	126,338
431	121,538
431,5	128,281
431,9	127,31
432,4	128,967
432,8	128,024
433,3	129,652
433,8	125,967
434,2	126,91
434,7	121,652
435,1	120,767
435,6	122,681
436	125,024
436,5	124,681
436,9	127,138
437,4	125,052
437,8	128,338
438,3	129,395
438,8	131,881
439,2	131,11
439,7	129,538
440,1	131,71
440,6	139,138
441	141,195
441,5	145,91
441,9	147,252
442,4	149,738
442,8	155,567
443,3	158,767
443,7	160,31
444,2	163,567
444,7	168,395
445,1	172,195
445,6	171,252
446	178,11
446,5	181,11
446,9	185,024
447,4	186,738
447,8	187,338
448,3	190,452
448,7	201,938
449,2	202,452
449,6	205,567
450,1	206,081
450,6	209,538
451	211,11
451,5	219,024
451,9	214,852
452,4	217,538
452,8	220,31
453,3	225,824
453,7	226,195
454,2	228,538
454,6	224,967
455,1	230,567
455,5	229,681
456	229,967
456,4	226,395
456,9	228,481
457,3	232,652
457,8	232,938
458,3	237,967
458,7	245,852
459,2	251,052
459,6	262,652
460,1	270,138
460,5	272,395
461	279,481
461,4	281,652
461,9	278,595
462,3	280,852
462,8	280,052
463,2	278,71
463,7	282,824
464,1	281,081
464,6	286,224
465	290,881
465,5	294,71
466	297,738
466,4	304,481
466,9	307,195
467,3	308,852
467,8	308,338
468,2	308,995
468,7	312,91
469,1	312,31
469,6	311,424
470	315,652
470,5	322,967
470,9	323,424
471,4	328,995
471,8	330,738
472,3	337,452
472,7	345,567
473,2	346,852
473,6	350,138
474,1	352,31
474,5	357,281
475	362,424
475,4	359,481
475,9	355,795
476,4	358,91
476,8	359,938
477,3	367,195
477,7	362,738
478,2	359,11
478,6	363,081
479,1	364,51
479,5	360,367
480	355,224
480,4	349,824
480,9	354,052
481,3	355,738
481,8	354,567
482,2	357,424
482,7	356,338
483,1	360,967
483,6	354,224
484	358,11
484,5	352,91
484,9	355,824
485,4	355,024
485,8	359,738
486,3	355,224
486,7	361,824
487,2	355,452
487,6	360,595
488,1	359,652
488,5	359,538
489	356,738
489,4	360,281
489,9	360,767
490,4	364,367
490,8	360,71
491,3	361,395
491,7	359,252
492,2	362,852
492,6	361,31
493,1	360,452
493,5	356,595
494	355,881
494,4	352,71
494,9	350,824
495,3	346,31
495,8	340,195
496,2	339,338
496,7	339,852
497,1	338,224
497,6	333,624
498	331,624
498,5	327,224
498,9	324,51
499,4	325,052
499,8	321,881
500,3	325,11
500,7	328,967
501,2	328,567
501,6	332,995
502,1	340,91
502,5	336,738
503	337,367
503,4	332,281
503,9	323,795
504,3	324,91
504,8	322,195
505,2	315,167
505,7	312,995
506,1	306,395
506,6	305,538
507	305,767
507,5	302,567
507,9	303,052
508,4	303,538
508,8	301,167
509,3	301,938
509,7	299,224
510,2	300,51
510,6	303,167
511,1	297,024
511,5	290,11
512	292,31
512,4	293,11
512,9	290,338
513,3	286,252
513,8	280,767
514,2	280,824
514,7	281,024
515,1	283,11
515,6	273,938
516	273,51
516,5	274,938
516,9	269,881
517,4	265,51
517,8	266,91
518,3	259,024
518,7	261,71
519,2	261,11
519,6	254,252
520,1	257,852
520,5	257,652
521	256,995
521,4	254,052
521,9	254,938
522,3	249,71
522,8	247,338
523,2	239,795
523,7	235,767
524,1	233,081
524,6	234,567
525	229,91
525,5	229,824
525,9	229,624
526,4	229,538
526,8	227,195
527,3	224,738
527,7	218,881
528,2	220,481
528,6	219,881
529,1	224,052
529,5	221,252
530	219,795
530,4	216,052
530,9	212,281
531,3	207,738
531,8	203,338
532,2	195,967
532,6	194,224
533,1	193,052
533,5	192,367
534	191,938
534,4	191,31
534,9	191,738
535,3	191,738
535,8	190,652
536,2	186,824
536,7	186,881
537,1	192,967
537,6	191,51
538	187,11
538,5	184,824
538,9	185,938
539,4	190,738
539,8	189,995
540,3	185,767
540,7	181,967
541,2	184,567
541,6	185,11
542,1	179,595
542,5	171,824
543	171,51
543,4	167,195
543,9	168,252
544,3	166,052
544,8	159,738
545,2	159,967
545,7	159,224
546,1	156,738
546,5	155,624
547	155,795
547,4	149,367
547,9	153,995
548,3	152,681
548,8	155,824
549,2	149,395
549,7	145,995
550,1	142,938
550,6	143,195
551	141,31
551,5	137,938
551,9	133,452
552,4	139,31
552,8	142,738
553,3	139,224
553,7	142,881
554,2	139,395
554,6	141,481
555,1	142,11
555,5	137,681
555,9	129,567
556,4	131,452
556,8	128,281
557,3	127,338
557,7	127,71
558,2	126,138
558,6	124,71
559,1	128,795
559,5	130,91
560	127,11
560,4	129,024
560,9	126,824
561,3	124,795
561,8	122,281
562,2	119,738
562,7	114,395
563,1	115,052
563,6	117,338
564	116,31
564,4	117,91
564,9	119,824
565,3	117,51
565,8	121,11
566,2	121,995
566,7	120,395
567,1	124,252
567,6	120,852
568	121,624
568,5	119,11
568,9	109,995
569,4	107,881
569,8	103,967
570,3	95,567
570,7	98,91
571,1	92,824
571,6	94,395
572	97,967
572,5	100,767
572,9	99,452
573,4	104,052
573,8	103,567
574,3	102,967
574,7	104,024
575,2	103,595
575,6	98,367
576,1	95,852
576,5	88,252
576,9	86,91
577,4	86,195
577,8	89,452
578,3	89,481
578,7	88,567
579,2	89,824
579,6	96,567
580,1	94,595
580,5	94,595
581	87,624
581,4	88,452
581,9	92,224
582,3	90,195
582,7	85,052
583,2	81,567
583,6	82,767
584,1	89,252
584,5	84,767
585	83,195
585,4	84,624
585,9	87,567
586,3	91,795
586,8	96,91
587,2	92,281
587,6	92,767
588,1	91,91
588,5	94,024
589	92,538
589,4	90,51
589,9	86,767
590,3	85,795
590,8	83,367
591,2	77,624
591,7	72,624
592,1	74,624
592,5	73,224
593	71,481
593,4	69,852
593,9	73,481
594,3	78,367
594,8	78,71
595,2	75,224
595,7	73,281
596,1	73,538
596,6	73,995
597	70,852
597,4	73,452
597,9	74,767
598,3	70,91
598,8	73,424
599,2	72,452
599,7	70,824
600,1	75,681
600,6	72,367
601	73,367
601,4	78,71
601,9	78,338
602,3	85,938
602,8	86,824
603,2	79,252
603,7	75,681
604,1	74,224
604,6	75,252
605	75,767
605,4	71,281
605,9	73,91
606,3	75,481
606,8	80,852
607,2	79,652
607,7	77,824
608,1	74,824
608,6	72,624
609	70,224
609,4	72,224
609,9	68,195
610,3	67,595
610,8	70,652
611,2	73,281
611,7	75,252
612,1	80,195
612,6	81,281
613	79,967
613,4	79,052
613,9	74,738
614,3	76,967
614,8	69,795
615,2	64,767
615,7	60,395
616,1	62,481
616,6	61,881
617	61,624
617,4	57,31
617,9	62,367
618,3	64,424
618,8	67,395
619,2	66,881
619,7	73,167
620,1	73,71
620,5	77,338
621	78,11
621,4	74,281
621,9	74,424
622,3	74,424
622,8	71,081
623,2	70,767
623,6	68,367
624,1	65,967
624,5	67,938
625	64,252
625,4	65,424
625,9	63,595
626,3	61,31
626,8	59,795
627,2	60,138
627,6	60,31
628,1	66,252
628,5	66,367
629	65,824
629,4	67,224
629,9	66,281
630,3	65,71
630,7	67,71
631,2	62,624
631,6	58,167
632,1	57,538
632,5	57,052
633	55,881
633,4	56,138
633,8	51,567
634,3	53,11
634,7	54,795
635,2	58,281
635,6	60,71
636,1	63,995
636,5	63,224
636,9	68,024
637,4	67,538
637,8	71,281
638,3	72,567
638,7	69,738
639,2	68,795
639,6	71,367
640	69,281
640,5	71,824
640,9	73,167
641,4	67,424
641,8	63,938
642,2	63,481
642,7	64,195
643,1	61,71
643,6	59,71
644	55,71
644,5	56,91
644,9	61,71
645,3	64,624
645,8	66,824
646,2	70,167
646,7	68,31
647,1	64,91
647,6	66,338
648	63,452
648,4	59,967
648,9	52,138
649,3	49,595
649,8	51,567
650,2	52,452
650,6	51,452
651,1	53,481
651,5	55,367
652	60,024
652,4	61,224
652,9	60,281
653,3	67,824
653,7	66,11
654,2	68,052
654,6	62,91
655,1	59,738
655,5	57,624
655,9	59,252
656,4	53,938
656,8	56,081
657,3	53,652
657,7	56,452
658,2	54,11
658,6	58,11
659	57,938
659,5	53,71
659,9	56,252
660,4	59,167
660,8	57,938
661,2	61,195
661,7	53,452
662,1	53,824
662,6	59,652
663	54,31
663,4	51,138
663,9	51,967
664,3	54,052
664,8	53,767
665,2	50,852
665,6	52,481
666,1	52,938
666,5	53,967
667	55,51
667,4	54,224
667,9	59,738
668,3	60,738
668,7	60,852
669,2	60,881
669,6	60,567
670,1	58,51
670,5	54,852
670,9	55,91
671,4	57,367
671,8	54,595
672,3	52,652
672,7	52,652
673,1	56,167
673,6	54,938
674	52,481
674,5	53,138
674,9	48,052
675,3	51,938
675,8	46,795
676,2	42,252
676,7	44,852
677,1	43,11
677,5	40,481
678	44,538
678,4	45,052
678,9	47,881
679,3	52,367
679,7	51,91
680,2	53,995
680,6	52,652
681,1	53,281
681,5	49,052
681,9	50,452
682,4	46,081
682,8	45,824
683,3	48,167
683,7	50,224
684,1	47,31
684,6	50,481
685	50,967
685,5	55,395
685,9	54,738
686,3	50,995
686,8	47,852
687,2	48,367
687,7	47,024
688,1	42,652
688,5	38,652
689	42,595
689,4	43,424
689,9	43,538
690,3	46,281
690,7	47,51
691,2	48,195
691,6	50,338
692	47,395
692,5	49,481
692,9	51,967
693,4	51,767
693,8	51,567
694,2	50,795
694,7	52,052
695,1	55,795
695,6	50,424
696	52,31
696,4	50,138
696,9	49,71
697,3	54,338
697,8	52,167
698,2	47,081
698,6	51,91
699,1	48,624
699,5	54,652
699,9	53,852
700,4	51,395
700,8	52,452
701,3	54,281
701,7	51,052
702,1	51,252
702,6	47,424
703	49,081
703,5	51,224
703,9	50,51
704,3	49,967
704,8	52,481
705,2	54,967
705,6	53,138
706,1	51,767
706,5	52,881
707	50,624
707,4	51,738
707,8	48,91
708,3	48,052
708,7	49,652
709,2	51,338
709,6	48,138
710	47,767
710,5	49,452
710,9	45,367
711,3	41,138
711,8	37,052
712,2	32,252
712,7	33,767
713,1	31,51
713,5	29,452
714	36,024
714,4	38,481
714,8	43,11
715,3	44,567
715,7	47,31
716,2	53,967
716,6	52,71
717	55,652
717,5	54,338
717,9	52,452
718,3	54,738
718,8	54,424
719,2	49,081
719,7	52,452
720,1	51,767
720,5	54,138
721	55,452
721,4	57,738
721,8	55,938
722,3	57,938
722,7	54,11
723,2	49,567
723,6	48,624
724	50,938
724,5	50,167
724,9	47,852
725,3	51,938
725,8	51,767
726,2	51,71
726,7	53,681
727,1	47,738
727,5	45,481
728	47,138
728,4	45,052
728,8	43,138
729,3	42,71
729,7	38,081
730,1	39,338
730,6	35,51
731	32,481
731,5	29,338
731,9	29,367
732,3	28,767
732,8	28,595
733,2	31,652
733,6	36,31
734,1	37,938
734,5	38,681
734,9	42,881
735,4	40,852
735,8	47,31
736,3	49,195
736,7	47,938
737,1	49,824
737,6	49,881
738	48,338
738,4	53,11
738,9	45,452
739,3	41,738
739,7	42,91
740,2	40,024
740,6	39,052
741,1	39,738
741,5	38,424
741,9	37,824
742,4	36,424
742,8	39,167
743,2	41,538
743,7	43,538
744,1	41,852
744,5	43,338
745	43,538
745,4	44,252
745,8	41,938
746,3	41,338
746,7	46,538
747,2	49,11
747,6	51,967
748	52,624
748,5	52,652
748,9	53,967
749,3	52,595
749,8	51,995
750,2	50,424
750,6	47,281
751,1	52,595
751,5	54,081
751,9	49,538
752,4	55,024
752,8	52,995
753,3	54,795
753,7	51,395
754,1	47,881
754,6	47,995
755	48,824
755,4	46,595
755,9	43,852
756,3	39,624
756,7	41,224
757,2	42,538
757,6	38,738
758	42,167
758,5	39,338
758,9	36,624
759,3	37,424
759,8	37,595
760,2	37,224
760,6	38,824
761,1	34,795
761,5	39,71
761,9	43,424
762,4	46,767
762,8	50,252
763,3	51,31
763,7	48,481
764,1	50,595
764,6	42,967
765	39,938
765,4	31,452
765,9	25,595
766,3	26,681
766,7	25,195
767,2	23,024
767,6	28,367
768	31,881
768,5	39,91
768,9	42,795
769,3	39,11
769,8	43,252
770,2	45,967
770,6	46,052
771,1	43,51
771,5	43,767
771,9	42,881
772,4	47,452
772,8	48,395
773,2	48,024
773,7	46,167
774,1	42,71
774,5	40,252
775	43,195
775,4	39,538
775,8	38,567
776,3	38,995
776,7	39,567
777,1	50,224
777,6	51,31
778	49,567
778,4	50,51
778,9	53,652
779,3	53,881
779,7	53,138
780,2	44,767
780,6	42,452
781	45,995
781,5	55,167
781,9	50,195
782,3	48,395
782,8	51,967
783,2	55,424
783,6	57,31
784,1	55,11
784,5	46,167
784,9	48,938
785,4	46,881
785,8	48,224
786,2	44,481
786,7	44,424
787,1	41,395
787,5	37,424
788	36,71
788,4	40,995
788,8	37,852
789,3	40,71
789,7	37,767
790,1	43,224
790,6	44,281
791	43,71
791,4	40,852
791,9	39,281
792,3	37,481
792,7	36,195
793,2	34,138
793,6	35,224
794	38,595
794,5	40,681
794,9	43,281
795,3	45,338
795,8	50,967
796,2	51,938
796,6	54,024
797,1	51,167
797,5	50,052
797,9	49,967
798,4	49,338
798,8	46,567
799,2	43,795
799,7	41,424
800,1	38,024
800,5	39,224
801	34,681
801,4	34,624
801,8	30,967
802,2	28,967
802,7	35,481
803,1	39,024
803,5	38,252
804	39,995
804,4	39,481
804,8	47,281
805,3	53,138
805,7	48,795
806,1	53,767
806,6	53,024
807	57,167
807,4	55,881
807,9	53,138
808,3	50,024
808,7	49,852
809,2	47,681
809,6	46,11
810	42,567
810,4	42,481
810,9	45,195
811,3	47,395
811,7	48,052
812,2	45,252
812,6	48,71
813	45,738
813,5	45,052
813,9	43,824
814,3	44,052
814,8	40,967
815,2	40,138
815,6	35,824
816,1	38,138
816,5	38,11
816,9	36,424
817,3	32,595
817,8	35,452
818,2	40,367
818,6	43,281
819,1	40,281
819,5	40,11
819,9	40,967
820,4	41,252
820,8	41,881
821,2	35,852
821,7	34,024
822,1	36,252
822,5	40,338
822,9	36,538
823,4	35,624
823,8	33,024
824,2	34,795
824,7	37,31
825,1	36,31
825,5	33,938
826	35,481
826,4	37,195
826,8	38,881
827,3	44,081
827,7	38,624
828,1	43,824
828,5	43,824
829	45,224
829,4	44,824
829,8	46,395
830,3	42,195
830,7	46,424
831,1	45,224
831,6	45,024
832	44,138
832,4	44,738
832,8	42,424
833,3	43,852
833,7	42,995
834,1	38,338
834,6	39,281
835	38,538
835,4	41,967
835,8	41,652
836,3	37,195
836,7	39,967
837,1	39,938
837,6	37,681
838	38,681
838,4	36,252
838,9	34,138
839,3	39,595
839,7	37,138
840,1	40,367
840,6	44,91
841	43,624
841,4	39,31
841,9	43,481
842,3	36,195
842,7	37,71
843,1	38,138
843,6	35,595
844	36,281
844,4	40,738
844,9	39,881
845,3	43,281
845,7	37,881
846,2	38,852
846,6	34,652
847	34,91
847,4	33,938
847,9	34,767
848,3	34,681
848,7	40,195
849,2	39,395
849,6	44,024
850	42,852
850,4	42,624
850,9	39,767
851,3	42,624
851,7	42,452
852,2	40,595
852,6	44,024
853	49,681
853,4	49,11
853,9	48,11
854,3	45,138
854,7	44,967
855,2	42,424
855,6	34,938
856	28,595
856,4	30,338
856,9	32,624
857,3	32,938
857,7	25,424
858,2	33,852
858,6	37,167
859	38,138
859,4	41,281
859,9	42,31
860,3	42,167
860,7	49,138
861,1	45,052
861,6	39,795
862	36,338
862,4	28,367
862,9	31,91
863,3	31,395
863,7	31,31
864,1	26,424
864,6	34,624
865	38,367
865,4	42,281
865,9	39,624
866,3	41,995
866,7	41,852
867,1	40,11
867,6	38,71
868	44,624
868,4	42,31
868,8	42,481
869,3	42,31
869,7	45,795
870,1	47,452
870,6	49,852
871	63,652
871,4	67,281
871,8	66,881
872,3	66,11
872,7	63,852
873,1	64,395
873,5	63,052
874	44,424
874,4	40,824
874,8	39,767
875,3	40,024
875,7	38,938
876,1	41,052
876,5	40,338
877	40,424
877,4	44,31
877,8	41,338
878,2	38,795
878,7	36,024
879,1	36,281
879,5	33,424
879,9	32,624
880,4	27,595
880,8	25,11
881,2	27,51
881,7	29,938
882,1	29,624
882,5	29,852
882,9	28,995
883,4	34,652
883,8	37,51
884,2	35,31
884,6	34,252
885,1	35,11
885,5	34,71
885,9	37,252
886,3	36,567
886,8	37,31
887,2	38,167
887,6	38,538
888	42,681
888,5	45,395
888,9	46,138
889,3	43,338
889,8	44,367
890,2	48,31
890,6	51,338
891	49,795
891,5	49,11
891,9	43,881
892,3	49,824
892,7	49,881
893,2	45,852
893,6	42,795
894	42,395
894,4	41,31
894,9	44,71
895,3	39,595
895,7	37,567
896,1	37,538
896,6	39,224
897	35,995
897,4	35,224
897,8	35,91
898,3	33,738
898,7	36,224
899,1	38,852
899,5	33,824
900	37,652
900,4	40,71
900,8	43,11
901,2	40,481
901,7	42,31
902,1	39,252
902,5	41,538
902,9	39,852
903,4	35,795
903,8	33,481
904,2	36,681
904,6	33,795
905,1	38,567
905,5	43,624
905,9	41,452
906,3	41,938
906,8	40,481
907,2	42,881
907,6	44,595
908	38,881
908,5	36,367
908,9	38,567
909,3	37,881
909,7	37,052
910,2	36,595
910,6	36,224
911	39,395
911,4	37,624
911,9	36,71
912,3	39,881
912,7	40,652
913,1	42,624
913,6	45,567
914	45,567
914,4	46,995
914,8	49,281
915,3	47,338
915,7	46,081
916,1	41,338
916,5	42,252
916,9	41,938
917,4	40,224
917,8	38,195
918,2	42,081
918,6	44,624
919,1	47,224
919,5	41,824
919,9	41,481
920,3	43,624
920,8	41,91
921,2	39,167
921,6	40,367
922	42,081
922,5	42,195
922,9	45,824
923,3	44,024
923,7	44,738
924,2	47,167
924,6	41,91
925	43,967
925,4	46,481
925,8	44,795
926,3	47,995
926,7	48,967
927,1	46,167
927,5	51,052
928	44,081
928,4	44,91
928,8	45,852
929,2	46,424
929,7	46,138
930,1	48,881
930,5	45,224
930,9	50,167
931,3	45,91
931,8	46,452
932,2	48,51
932,6	47,252
933	46,967
933,5	46,71
933,9	45,852
934,3	49,767
934,7	45,852
935,2	37,967
935,6	41,681
936	42,11
936,4	48,281
936,8	47,538
937,3	42,795
937,7	41,824
938,1	45,767
938,5	40,767
939	38,281
939,4	32,652
939,8	33,367
940,2	33,852
940,6	36,081
941,1	37,224
941,5	36,567
941,9	40,881
942,3	47,824
942,8	46,024
943,2	46,652
943,6	45,567
944	47,881
944,4	51,338
944,9	46,538
945,3	40,738
945,7	40,71
946,1	43,738
946,6	43,167
947	41,967
947,4	44,481
947,8	41,71
948,2	44,71
948,7	43,652
949,1	42,424
949,5	42,452
949,9	41,824
950,3	40,481
950,8	44,167
951,2	45,938
951,6	47,567
952	46,852
952,5	43,652
952,9	40,51
953,3	36,395
953,7	34,224
954,1	31,081
954,6	34,881
955	37,395
955,4	41,824
955,8	43,567
956,2	40,567
956,7	45,824
957,1	44,11
957,5	43,395
957,9	40,681
958,3	43,424
958,8	43,11
959,2	50,195
959,6	51,367
960	51,652
960,5	49,367
960,9	54,424
961,3	49,481
961,7	49,681
962,1	49,795
962,6	45,538
963	46,51
963,4	46,71
963,8	47,052
964,2	49,624
964,7	46,567
965,1	49,31
965,5	45,795
965,9	43,052
966,3	42,195
966,8	36,367
967,2	32,624
967,6	37,052
968	33,624
968,4	36,395
968,9	35,938
969,3	34,024
969,7	36,481
970,1	39,081
970,5	36,881
971	35,252
971,4	35,852
971,8	38,767
972,2	36,852
972,6	35,995
973,1	37,652
973,5	41,252
973,9	43,795
974,3	44,652
974,7	45,452
975,2	49,538
975,6	46,224
976	44,481
976,4	36,995
976,8	37,224
977,3	40,367
977,7	39,252
978,1	38,338
978,5	39,31
978,9	38,052
979,4	44,081
979,8	41,795
980,2	34,567
980,6	33,767
981	34,824
981,5	39,652
981,9	42,852
982,3	42,195
982,7	41,967
983,1	41,738
983,6	43,424
984	46,595
984,4	41,367
984,8	36,367
985,2	34,91
985,6	37,338
986,1	40,338
986,5	37,281
986,9	34,31
987,3	34,052
987,7	38,767
988,2	35,024
988,6	35,71
989	37,852
989,4	44,995
989,8	47,367
990,3	50,224
990,7	53,852
991,1	59,91
991,5	55,995
991,9	55,824
992,3	55,11
992,8	53,052
993,2	49,624
993,6	48,452
994	48,081
994,4	49,081
994,9	48,852
995,3	48,995
995,7	48,881
996,1	48,51
996,5	44,481
996,9	41,652
997,4	44,51
997,8	42,481
998,2	37,538
998,6	36,281
999	42,424
999,5	43,624
999,9	41,795
1000,3	39,795
1000,7	39,31
1001,1	39,91
1001,5	37,624
1002	35,595
1002,4	37,424
1002,8	39,767
1003,2	36,538
1003,6	37,71
1004	36,995
1004,5	31,795
1004,9	30,424
1005,3	27,481
1005,7	31,767
1006,1	32,624
1006,6	30,567
1007	32,652
1007,4	38,167
1007,8	42,71
1008,2	40,681
1008,6	36,052
1009,1	37,224
1009,5	40,824
1009,9	39,281
1010,3	44,452
1010,7	41,624
1011,1	42,167
1011,6	45,195
1012	46,195
1012,4	43,567
1012,8	42,338
1013,2	40,452
1013,6	44,167
1014,1	47,252
1014,5	43,195
1014,9	41,852
1015,3	44,395
1015,7	51,081
1016,1	44,338
1016,6	38,967
1017	36,852
1017,4	36,081
1017,8	32,824
1018,2	34,31
1018,6	29,852
1019,1	36,052
1019,5	37,052
1019,9	40,11
1020,3	43,624
1020,7	46,424
1021,1	40,052
1021,6	37,967
1022	37,91
1022,4	37,652
1022,8	41,052
1023,2	38,481
1023,6	34,881
1024,1	37,881
1024,5	37,281
1024,9	37,71
1025,3	36,424
1025,7	34,11
1026,1	35,71
1026,6	39,538
1027	39,567
1027,4	42,91
1027,8	44,681
1028,2	52,31
1028,6	47,567
1029	50,224
1029,5	50,081
1029,9	51,424
1030,3	52,195
1030,7	53,281
1031,1	49,052
1031,5	53,224
1032	48,595
1032,4	45,167
1032,8	46,91
1033,2	45,167
1033,6	41,195
1034	41,281
1034,4	37,31
1034,9	42,738
1035,3	49,624
1035,7	44,824
1036,1	45,081
1036,5	45,624
1036,9	45,252
1037,4	49,652
1037,8	46,395
1038,2	41,252
1038,6	43,595
1039	47,424
1039,4	51,367
1039,8	51,51
1040,3	50,367
1040,7	53,281
1041,1	59,624
1041,5	66,738
1041,9	62,081
1042,3	58,795
1042,7	56,31
1043,2	56,31
1043,6	56,224
1044	50,481
1044,4	45,538
1044,8	48,195
1045,2	47,795
1045,6	49,51
1046,1	47,595
1046,5	46,91
1046,9	52,538
1047,3	57,081
1047,7	55,138
1048,1	49,138
1048,5	47,652
1049	46,452
1049,4	50,824
1049,8	50,995
1050,2	44,195
1050,6	47,967
1051	59,652
1051,4	62,395
1051,9	65,538
1052,3	60,738
1052,7	58,995
1053,1	59,024
1053,5	57,767
1053,9	53,595
1054,3	54,31
1054,8	57,681
1055,2	56,938
1055,6	60,052
1056	59,367
1056,4	59,938
1056,8	63,167
1057,2	61,71
1057,6	59,11
1058,1	60,767
1058,5	54,167
1058,9	57,595
1059,3	53,024
1059,7	49,024
1060,1	50,51
1060,5	54,167
1061	51,252
1061,4	59,51
1061,8	55,824
1062,2	59,967
1062,6	62,652
1063	62,595
1063,4	59,652
1063,8	58,224
1064,3	52,31
1064,7	54,938
1065,1	56,31
1065,5	50,881
1065,9	51,452
1066,3	46,938
1066,7	51,195
1067,1	51,081
1067,6	53,138
1068	49,538
1068,4	51,481
1068,8	48,51
1069,2	50,452
1069,6	45,91
1070	50,967
1070,4	47,252
1070,9	49,395
1071,3	48,51
1071,7	49,452
1072,1	54,995
1072,5	57,281
1072,9	52,281
1073,3	50,567
1073,7	53,767
1074,2	56,224
1074,6	57,681
1075	50,795
1075,4	57,995
1075,8	56,167
1076,2	59,852
1076,6	54,31
1077	51,338
1077,5	48,195
1077,9	49,681
1078,3	40,767
1078,7	42,91
1079,1	42,052
1079,5	43,767
1079,9	42,71
1080,3	42,31
1080,7	42,195
1081,2	44,281
1081,6	39,767
1082	34,195
1082,4	31,081
1082,8	34,51
1083,2	33,852
1083,6	36,595
1084	32,767
1084,5	39,138
1084,9	42,91
1085,3	44,195
1085,7	43,795
1086,1	42,11
1086,5	40,624
1086,9	45,31
1087,3	43,31
1087,7	45,024
1088,2	42,91
1088,6	41,567
1089	42,395
1089,4	37,424
1089,8	37,481
1090,2	38,252
1090,6	35,738
1091	41,938
1091,4	41,938
1091,9	43,052
1092,3	47,195
1092,7	46,51
1093,1	43,967
1093,5	41,052
1093,9	34,824
1094,3	34,681
1094,7	34,71
1095,1	32,995
1095,5	31,138
1096	36,31
1096,4	38,538
1096,8	38,281
1097,2	41,824
1097,6	42,51
1098	44,795
1098,4	46,681
1098,8	41,138
1099,2	40,395
1099,6	42,681
1100,1	36,624
1100,5	35,31
1100,9	30,567
1101,3	27,138
1101,7	27,995
1102,1	27,852
1102,5	28,167
1102,9	31,567
1103,3	33,424
1103,7	32,11
1104,2	34,652
1104,6	34,31
1105	34,624
1105,4	31,281
1105,8	24,652
1106,2	18,738
1106,6	16,852
1107	11,224
1107,4	7,267
1107,8	3,847
1108,3	-0,133
