Data from Subt2_00005.txt Node
Date: Mon Aug 28 12:04:52 MSK 2023
User: vat
Spectrometer: MAYP114033
Trigger mode: 0
Integration Time (sec): 1,000000E0
Scans to average: 5
Electric dark correction enabled: true
Nonlinearity correction enabled: false
Boxcar width: 3
XAxis mode: Wavelengths
Number of Pixels in Spectrum: 2068
>>>>>Begin Spectral Data<<<<<
199,4	0,767
199,9	4,827
200,4	12,567
200,8	12,724
201,3	18,267
201,8	23,352
202,2	26,981
202,7	31,038
203,2	34,524
203,6	33,667
204,1	39,667
204,6	39,267
205	42,238
205,5	43,381
206	46,552
206,4	43,895
206,9	41,952
207,4	37,838
207,8	39,267
208,3	36,152
208,8	38,695
209,2	38,81
209,7	38,81
210,2	38,467
210,6	41,238
211,1	44,667
211,5	48,295
212	47,352
212,5	44,095
212,9	48,238
213,4	50,695
213,9	51,981
214,3	47,838
214,8	41,867
215,3	43,838
215,7	45,467
216,2	42,581
216,7	40,124
217,1	36,067
217,6	37,381
218,1	42,781
218,5	45,21
219	45,152
219,5	46,552
219,9	48,695
220,4	53,21
220,9	52,267
221,3	50,667
221,8	49,981
222,3	53,752
222,7	55,038
223,2	54,552
223,6	58,838
224,1	59,238
224,6	63,981
225	64,324
225,5	62,667
226	61,381
226,4	60,781
226,9	54,638
227,4	59,152
227,8	54,352
228,3	48,295
228,8	51,867
229,2	55,238
229,7	60,695
230,2	60,552
230,6	58,295
231,1	56,324
231,5	62,61
232	59,038
232,5	56,581
232,9	55,752
233,4	60,952
233,9	58,867
234,3	61,81
234,8	58,724
235,3	58,01
235,7	56,41
236,2	57,952
236,7	56,552
237,1	54,295
237,6	58,924
238,1	56,724
238,5	61,152
239	62,581
239,4	60,495
239,9	57,41
240,4	62,581
240,8	55,152
241,3	60,095
241,8	52,581
242,2	50,952
242,7	53,181
243,2	58,41
243,6	57,324
244,1	59,781
244,6	56,667
245	58,152
245,5	61,638
245,9	61,81
246,4	55,952
246,9	58,067
247,3	59,724
247,8	55,067
248,3	57,467
248,7	51,695
249,2	47,381
249,7	48,352
250,1	48,124
250,6	42,638
251	49,724
251,5	49,067
252	52,41
252,4	54,438
252,9	56,095
253,4	53,981
253,8	57,152
254,3	52,095
254,8	49,152
255,2	51,181
255,7	52,81
256,1	49,181
256,6	50,21
257,1	52,867
257,5	56,038
258	55,695
258,5	53,438
258,9	51,067
259,4	51,638
259,9	51,381
260,3	49,924
260,8	48,838
261,2	49,124
261,7	51,181
262,2	51,581
262,6	52,952
263,1	48,01
263,6	43,867
264	48,895
264,5	48,81
264,9	49,067
265,4	43,267
265,9	45,752
266,3	48,067
266,8	50,524
267,3	44,067
267,7	46,01
268,2	48,41
268,7	50,095
269,1	44,038
269,6	46,81
270	49,095
270,5	48,838
271	50,724
271,4	54,638
271,9	57,238
272,4	59,838
272,8	59,724
273,3	57,095
273,7	54,695
274,2	57,924
274,7	52,095
275,1	52,867
275,6	53,295
276,1	50,895
276,5	52,695
277	59,581
277,4	52,41
277,9	51,381
278,4	48,181
278,8	47,124
279,3	46,781
279,8	52,152
280,2	51,924
280,7	54,867
281,1	54,638
281,6	57,295
282,1	57,81
282,5	57,352
283	52,124
283,4	48,095
283,9	49,581
284,4	47,924
284,8	47,295
285,3	47,295
285,8	45,41
286,2	45,41
286,7	44,838
287,1	43,295
287,6	43,838
288,1	44,21
288,5	44,067
289	53,238
289,5	52,267
289,9	54,581
290,4	55,838
290,8	55,21
291,3	53,181
291,8	50,41
292,2	43,352
292,7	42,981
293,1	44,267
293,6	42,895
294,1	43,41
294,5	42,838
295	45,667
295,5	48,067
295,9	46,667
296,4	43,124
296,8	44,695
297,3	41,638
297,8	45,752
298,2	45,038
298,7	41,238
299,1	44,095
299,6	45,524
300,1	45,667
300,5	51,295
301	51,695
301,5	55,867
301,9	53,038
302,4	54,952
302,8	54,81
303,3	55,324
303,8	51,724
304,2	51,867
304,7	47,21
305,1	50,867
305,6	52,724
306,1	53,438
306,5	49,781
307	51,867
307,4	49,867
307,9	50,01
308,4	51,152
308,8	48,467
309,3	50,01
309,8	47,838
310,2	51,295
310,7	56,41
311,1	61,581
311,6	62,152
312,1	58,781
312,5	57,095
313	62,695
313,4	57,724
313,9	50,81
314,4	44,81
314,8	46,438
315,3	48,095
315,7	45,41
316,2	47,181
316,7	42,01
317,1	45,095
317,6	49,238
318	45,038
318,5	47,21
319	51,781
319,4	50,038
319,9	56,124
320,3	54,238
320,8	53,524
321,3	54,724
321,7	55,181
322,2	50,61
322,6	47,695
323,1	42,467
323,6	46,352
324	46,638
324,5	52,095
324,9	51,952
325,4	54,267
325,9	60,067
326,3	67,638
326,8	61,381
327,2	60,352
327,7	56,924
328,2	59,438
328,6	63,838
329,1	62,638
329,5	64,552
330	68,295
330,5	65,152
330,9	64,581
331,4	62,781
331,8	56,238
332,3	54,667
332,8	50,61
333,2	49,152
333,7	54,952
334,1	52,61
334,6	48,067
335,1	52,238
335,5	50,41
336	54,952
336,4	54,81
336,9	52,067
337,4	58,838
337,8	63,581
338,3	65,21
338,7	64,667
339,2	61,752
339,7	66,238
340,1	65,352
340,6	64,61
341	64,438
341,5	63,124
342	64,695
342,4	64,438
342,9	63,981
343,3	69,952
343,8	69,152
344,2	72,838
344,7	74,552
345,2	76,524
345,6	76,695
346,1	79,41
346,5	80,381
347	83,124
347,5	83,81
347,9	89,838
348,4	95,124
348,8	98,324
349,3	99,867
349,8	99,752
350,2	107,981
350,7	116,152
351,1	125,295
351,6	134,495
352	153,295
352,5	180,095
353	216,295
353,4	255,238
353,9	304,381
354,3	358,238
354,8	430,724
355,3	516,495
355,7	607,095
356,2	719,667
356,6	850,438
357,1	1005,552
357,5	1194,838
358	1410,81
358,5	1659,867
358,9	1956,41
359,4	2290,21
359,8	2675,61
360,3	3111,924
360,8	3613,667
361,2	4178,267
361,7	4818,924
362,1	5532,895
362,6	6321,467
363	7180,581
363,5	8105,981
364	9088,781
364,4	10125,21
364,9	11173,781
365,3	12231,781
365,8	13272,724
366,3	14264,381
366,7	15196,438
367,2	16032,01
367,6	16761,295
368,1	17361,067
368,5	17820,752
369	18145,838
369,5	18325,838
369,9	18355,324
370,4	18252,724
370,8	17991,81
371,3	17619,781
371,7	17147,238
372,2	16562,467
372,7	15908,238
373,1	15207,01
373,6	14446,524
374	13684,41
374,5	12902,952
374,9	12113,438
375,4	11346,21
375,9	10599,267
376,3	9857,61
376,8	9156,152
377,2	8490,238
377,7	7862,41
378,2	7261,61
378,6	6702,21
379,1	6178,838
379,5	5703,324
380	5262,095
380,4	4850,838
380,9	4485,295
381,4	4160,01
381,8	3858,61
382,3	3587,695
382,7	3341,552
383,2	3120,752
383,6	2913,495
384,1	2719,41
384,6	2544,41
385	2384,81
385,5	2234,981
385,9	2085,467
386,4	1954,752
386,8	1825,867
387,3	1711,495
387,7	1596,152
388,2	1486,095
388,7	1378,238
389,1	1288,381
389,6	1190,495
390	1112,781
390,5	1027,124
390,9	956,895
391,4	888,895
391,9	835,381
392,3	779,81
392,8	737,495
393,2	687,124
393,7	646,895
394,1	604,781
394,6	571,381
395,1	528,352
395,5	497,781
396	460,038
396,4	432,495
396,9	409,124
397,3	387,181
397,8	365,467
398,2	350,238
398,7	328,495
399,2	314,295
399,6	299,181
400,1	282,581
400,5	264,695
401	257,238
401,4	241,724
401,9	235,61
402,4	223,41
402,8	213,352
403,3	205,981
403,7	198,981
404,2	188,095
404,6	187,867
405,1	177,838
405,5	173,724
406	167,267
406,5	158,038
406,9	155,181
407,4	145,81
407,8	138,181
408,3	134,181
408,7	135,21
409,2	132,552
409,6	131,838
410,1	127,981
410,6	128,267
411	126,181
411,5	122,152
411,9	114,352
412,4	117,752
412,8	118,924
413,3	122,21
413,7	123,924
414,2	124,524
414,7	129,724
415,1	131,524
415,6	128,724
416	129,152
416,5	129,238
416,9	127,61
417,4	125,267
417,8	125,152
418,3	125,181
418,8	124,581
419,2	121,867
419,7	124,552
420,1	124,981
420,6	123,124
421	126,41
421,5	124,067
421,9	126,324
422,4	125,495
422,8	122,724
423,3	120,41
423,8	122,495
424,2	114,181
424,7	115,01
425,1	108,552
425,6	111,524
426	112,152
426,5	115,152
426,9	113,838
427,4	110,495
427,9	109,067
428,3	110,695
428,8	104,581
429,2	96,724
429,7	89,438
430,1	89,124
430,6	93,781
431	90,667
431,5	89,695
431,9	90,467
432,4	86,61
432,8	88,01
433,3	86,781
433,8	81,381
434,2	81,295
434,7	74,01
435,1	69,238
435,6	72,152
436	69,495
436,5	64,638
436,9	66,838
437,4	58,467
437,8	61,467
438,3	62,181
438,8	60,952
439,2	57,667
439,7	56,581
440,1	54,21
440,6	56,61
441	53,152
441,5	56,867
441,9	56,61
442,4	54,267
442,8	56,295
443,3	56,638
443,7	58,295
444,2	61,324
444,7	56,752
445,1	54,724
445,6	56,895
446	58,81
446,5	54,81
446,9	51,524
447,4	50,552
447,8	52,124
448,3	53,352
448,7	58,124
449,2	54,781
449,6	56,181
450,1	59,638
450,6	61,038
451	57,838
451,5	62,41
451,9	59,438
452,4	59,952
452,8	59,295
453,3	57,41
453,7	56,524
454,2	59,095
454,6	55,495
455,1	55,61
455,5	55,495
456	58,095
456,4	58,467
456,9	59,467
457,3	59,295
457,8	56,867
458,3	59,524
458,7	60,095
459,2	60,124
459,6	64,695
460,1	65,324
460,5	64,095
461	63,581
461,4	60,267
461,9	55,895
462,3	53,21
462,8	49,01
463,2	47,667
463,7	47,867
464,1	48,438
464,6	52,324
465	52,581
465,5	54,324
466	55,638
466,4	55,295
466,9	57,381
467,3	55,038
467,8	49,81
468,2	48,667
468,7	49,581
469,1	48,467
469,6	43,952
470	43,495
470,5	45,638
470,9	45,21
471,4	47,01
471,8	47,695
472,3	46,695
472,7	58,524
473,2	59,381
473,6	60,838
474,1	63,41
474,5	68,695
475	64,581
475,4	65,238
475,9	57,667
476,4	56,838
476,8	55,01
477,3	56,895
477,7	52,381
478,2	52,267
478,6	53,352
479,1	48,838
479,5	45,467
480	40,752
480,4	36,952
480,9	38,552
481,3	41,467
481,8	41,581
482,2	47,21
482,7	49,267
483,1	54,01
483,6	49,524
484	49,924
484,5	45,21
484,9	47,524
485,4	46,895
485,8	46,667
486,3	44,095
486,7	51,724
487,2	51,981
487,6	54,581
488,1	52,924
488,5	53,552
489	52,324
489,4	53,952
489,9	51,038
490,4	52,667
490,8	52,095
491,3	48,038
491,7	45,381
492,2	51,095
492,6	51,952
493,1	51,067
493,5	46,238
494	48,21
494,4	54,695
494,9	57,067
495,3	53,752
495,8	51,61
496,2	54,41
496,7	61,067
497,1	58,895
497,6	56,152
498	54,381
498,5	54,81
498,9	55,124
499,4	57,495
499,8	55,124
500,3	57,667
500,7	57,867
501,2	59,41
501,6	59,495
502,1	66,152
502,5	60,695
503	58,981
503,4	58,81
503,9	55,124
504,3	54,238
504,8	54,895
505,2	50,838
505,7	50,981
506,1	52,41
506,6	51,638
507	52,21
507,5	52,21
507,9	51,895
508,4	47,038
508,8	47,524
509,3	42,61
509,7	41,552
510,2	45,181
510,6	44,724
511,1	41,495
511,5	47,324
512	49,752
512,4	51,267
512,9	50,781
513,3	46,41
513,8	45,81
514,2	47,61
514,7	45,667
515,1	45,724
515,6	46,124
516	47,124
516,5	50,181
516,9	53,381
517,4	56,638
517,8	59,467
518,3	58,638
518,7	58,667
519,2	57,724
519,6	56,61
520,1	56,838
520,5	52,238
521	53,381
521,4	56,095
521,9	59,438
522,3	60,238
522,8	54,867
523,2	49,867
523,7	46,81
524,1	44,067
524,6	41,895
525	41,095
525,5	39,41
525,9	41,095
526,4	39,181
526,8	40,181
527,3	39,324
527,7	40,867
528,2	40,21
528,6	45,81
529,1	48,667
529,5	50,495
530	53,838
530,4	54,867
530,9	48,867
531,3	47,638
531,8	43,067
532,2	43,352
532,6	42,724
533,1	45,352
533,5	44,467
534	47,695
534,4	48,324
534,9	47,124
535,3	48,581
535,8	51,895
536,2	46,81
536,7	45,895
537,1	50,038
537,6	49,124
538	48,924
538,5	46,924
538,9	48,181
539,4	50,552
539,8	57,467
540,3	56,61
540,7	58,295
541,2	62,838
541,6	61,581
542,1	59,867
542,5	62,867
543	55,695
543,4	50,895
543,9	50,21
544,3	45,495
544,8	47,695
545,2	44,867
545,7	38,667
546,1	42,21
546,5	46,61
547	48,438
547,4	47,638
547,9	48,038
548,3	51,381
548,8	57,267
549,2	56,667
549,7	52,324
550,1	50,781
550,6	53,467
551	54,467
551,5	50,095
551,9	47,152
552,4	50,267
552,8	51,152
553,3	49,238
553,7	49,752
554,2	46,581
554,6	54,095
555,1	53,524
555,5	48,01
555,9	47,981
556,4	53,21
556,8	50,867
557,3	51,467
557,7	48,152
558,2	48,181
558,6	46,181
559,1	46,895
559,5	42,838
560	40,524
560,4	45,895
560,9	41,124
561,3	42,352
561,8	46,124
562,2	47,952
562,7	47,981
563,1	52,152
563,6	49,352
564	53,81
564,4	52,352
564,9	51,667
565,3	48,352
565,8	51,981
566,2	54,295
566,7	54,467
567,1	56,238
567,6	57,152
568	55,981
568,5	57,61
568,9	51,952
569,4	49,524
569,8	48,495
570,3	43,21
570,7	42,238
571,1	41,21
571,6	40,152
572	43,695
572,5	46,381
572,9	48,61
573,4	52,981
573,8	56,524
574,3	55,21
574,7	59,352
575,2	59,895
575,6	57,295
576,1	53,467
576,5	51,752
576,9	48,61
577,4	48,81
577,8	48,01
578,3	46,095
578,7	43,781
579,2	42,295
579,6	43,724
580,1	42,381
580,5	42,267
581	34,695
581,4	39,695
581,9	47,581
582,3	49,152
582,7	46,381
583,2	47,41
583,6	50,81
584,1	56,381
584,5	51,21
585	47,067
585,4	46,324
585,9	48,381
586,3	47,924
586,8	46,038
587,2	42,924
587,6	42,352
588,1	40,21
588,5	43,438
589	45,21
589,4	46,295
589,9	44,524
590,3	45,61
590,8	46,895
591,2	45,438
591,7	44,295
592,1	42,095
592,5	41,152
593	45,524
593,4	45,924
593,9	48,01
594,3	52,552
594,8	52,667
595,2	52,352
595,7	52,667
596,1	48,838
596,6	46,324
597	44,724
597,4	43,41
597,9	44,124
598,3	42,124
598,8	41,838
599,2	44,895
599,7	45,952
600,1	45,352
600,6	45,41
601	42,552
601,4	48,381
601,9	50,667
602,3	51,867
602,8	53,095
603,2	51,181
603,7	47,952
604,1	49,467
604,6	45,181
605	44,524
605,4	45,924
605,9	47,952
606,3	47,21
606,8	52,01
607,2	51,467
607,7	53,581
608,1	49,01
608,6	46,638
609	45,581
609,4	44,981
609,9	38,41
610,3	37,438
610,8	38,181
611,2	43,952
611,7	44,81
612,1	47,381
612,6	51,438
613	53,781
613,4	51,867
613,9	51,238
614,3	50,781
614,8	47,095
615,2	44,495
615,7	41,61
616,1	44,124
616,6	44,324
617	44,667
617,4	43,61
617,9	50,981
618,3	49,667
618,8	48,924
619,2	46,352
619,7	50,695
620,1	50,095
620,5	54,781
621	49,095
621,4	53,295
621,9	54,838
622,3	54,067
622,8	55,238
623,2	56,438
623,6	55,581
624,1	57,524
624,5	55,381
625	55,01
625,4	59,438
625,9	56,724
626,3	54,324
626,8	48,381
627,2	47,81
627,6	47,41
628,1	54,21
628,5	50,095
629	51,295
629,4	50,152
629,9	49,01
630,3	49,267
630,7	53,638
631,2	51,381
631,6	49,01
632,1	49,438
632,5	51,381
633	56,352
633,4	53,21
633,8	52,981
634,3	48,152
634,7	51,41
635,2	51,067
635,6	52,152
636,1	47,21
636,5	49,352
636,9	47,895
637,4	48,152
637,8	51,124
638,3	53,81
638,7	53,695
639,2	56,352
639,6	57,695
640	54,838
640,5	56,124
640,9	55,21
641,4	50,095
641,8	46,21
642,2	45,181
642,7	42,895
643,1	38,724
643,6	35,352
644	34,552
644,5	38,352
644,9	44,724
645,3	49,295
645,8	54,295
646,2	57,867
646,7	60,61
647,1	57,41
647,6	60,381
648	54,638
648,4	49,238
648,9	48,467
649,3	52,752
649,8	53,238
650,2	57,667
650,6	53,752
651,1	56,981
651,5	58,324
652	53,638
652,4	48,61
652,9	49,238
653,3	53,724
653,7	50,895
654,2	52,752
654,6	52,352
655,1	53,295
655,5	52,924
655,9	51,724
656,4	47,267
656,8	49,21
657,3	45,895
657,7	43,752
658,2	42,41
658,6	44,01
659	50,152
659,5	44,067
659,9	43,695
660,4	48,81
660,8	49,438
661,2	54,981
661,7	55,21
662,1	50,181
662,6	54,267
663	51,924
663,4	48,267
663,9	54,352
664,3	51,752
664,8	52,038
665,2	52,01
665,6	54,324
666,1	58,295
666,5	55,21
667	49,152
667,4	47,267
667,9	49,695
668,3	49,295
668,7	49,41
669,2	46,724
669,6	49,21
670,1	51,124
670,5	51,61
670,9	51,438
671,4	55,895
671,8	57,495
672,3	52,438
672,7	53,952
673,1	52,752
673,6	51,067
674	48,781
674,5	43,924
674,9	36,695
675,3	42,152
675,8	40,438
676,2	39,495
676,7	38,61
677,1	37,038
677,5	39,124
678	42,267
678,4	45,638
678,9	42,524
679,3	45,724
679,7	47,895
680,2	50,867
680,6	51,124
681,1	53,895
681,5	49,21
681,9	49,895
682,4	45,038
682,8	48,381
683,3	49,067
683,7	46,124
684,1	45,41
684,6	49,181
685	52,924
685,5	58,952
685,9	53,038
686,3	47,81
686,8	47,41
687,2	42,752
687,7	35,552
688,1	30,438
688,5	24,324
689	29,581
689,4	31,21
689,9	29,81
690,3	36,752
690,7	40,181
691,2	43,895
691,6	48,867
692	47,495
692,5	48,667
692,9	50,81
693,4	49,324
693,8	54,067
694,2	49,581
694,7	52,495
695,1	52,581
695,6	49,81
696	54,181
696,4	50,438
696,9	46,752
697,3	50,495
697,8	49,181
698,2	45,752
698,6	49,467
699,1	43,695
699,5	47,552
699,9	50,695
700,4	46,467
700,8	46,581
701,3	47,581
701,7	45,41
702,1	48,781
702,6	47,21
703	43,524
703,5	49,295
703,9	47,352
704,3	50,124
704,8	51,781
705,2	49,61
705,6	48,124
706,1	50,067
706,5	48,724
707	45,695
707,4	43,467
707,8	42,838
708,3	44,352
708,7	46,981
709,2	47,867
709,6	48,095
710	48,495
710,5	46,438
710,9	40,81
711,3	38,81
711,8	34,724
712,2	30,524
712,7	33,01
713,1	32,295
713,5	35,695
714	37,124
714,4	42,038
714,8	45,267
715,3	51,81
715,7	51,752
716,2	55,867
716,6	51,981
717	61,21
717,5	54,61
717,9	53,524
718,3	49,01
718,8	46,895
719,2	42,21
719,7	43,467
720,1	38,895
720,5	42,124
721	45,038
721,4	45,01
721,8	46,124
722,3	46,524
722,7	46,21
723,2	48,924
723,6	52,095
724	52,381
724,5	59,581
724,9	53,924
725,3	57,924
725,8	58,381
726,2	53,838
726,7	52,695
727,1	48,181
727,5	40,295
728	43,781
728,4	46,838
728,8	44,61
729,3	45,867
729,7	40,638
730,1	40,181
730,6	40,724
731	39,124
731,5	34,724
731,9	36,038
732,3	34,467
732,8	34,267
733,2	36,352
733,6	39,838
734,1	41,495
734,5	42,067
734,9	45,267
735,4	42,667
735,8	44,752
736,3	47,724
736,7	48,21
737,1	46,81
737,6	46,81
738	46,581
738,4	50,667
738,9	48,038
739,3	46,781
739,7	46,41
740,2	47,324
740,6	45,381
741,1	44,124
741,5	42,952
741,9	41,124
742,4	38,695
742,8	37,724
743,2	43,895
743,7	44,638
744,1	46,838
744,5	47,524
745	48,41
745,4	50,495
745,8	48,638
746,3	41,01
746,7	44,581
747,2	43,438
747,6	49,438
748	59,21
748,5	58,124
748,9	60,01
749,3	63,81
749,8	64,495
750,2	64,581
750,6	59,038
751,1	55,524
751,5	56,324
751,9	52,381
752,4	52,952
752,8	50,61
753,3	54,524
753,7	53,467
754,1	49,324
754,6	50,324
755	50,61
755,4	47,067
755,9	48,981
756,3	44,41
756,7	44,181
757,2	46,981
757,6	45,038
758	50,552
758,5	51,181
758,9	47,695
759,3	46,781
759,8	47,324
760,2	43,724
760,6	46,695
761,1	46,41
761,5	48,924
761,9	47,124
762,4	49,067
762,8	53,752
763,3	59,238
763,7	56,152
764,1	52,21
764,6	52,981
765	54,638
765,4	52,952
765,9	48,524
766,3	44,067
766,7	41,467
767,2	40,067
767,6	36,638
768	40,238
768,5	41,067
768,9	37,581
769,3	36,838
769,8	37,124
770,2	39,867
770,6	44,467
771,1	42,038
771,5	43,181
771,9	47,61
772,4	51,952
772,8	55,724
773,2	57,21
773,7	51,981
774,1	51,895
774,5	50,381
775	53,41
775,4	52,438
775,8	48,295
776,3	49,981
776,7	53,095
777,1	58,695
777,6	56,01
778	53,981
778,4	50,895
778,9	56,552
779,3	52,581
779,7	50,124
780,2	47,295
780,6	50,01
781	49,438
781,5	55,438
781,9	54,638
782,3	56,495
782,8	60,495
783,2	57,352
783,6	57,238
784,1	58,038
784,5	53,524
784,9	51,552
785,4	53,667
785,8	56,667
786,2	55,838
786,7	54,495
787,1	51,238
787,5	49,067
788	49,038
788,4	47,181
788,8	41,581
789,3	42,781
789,7	44,238
790,1	46,867
790,6	47,61
791	48,838
791,4	46,524
791,9	48,295
792,3	48,952
792,7	46,752
793,2	49,095
793,6	51,038
794	54,924
794,5	55,638
794,9	55,552
795,3	54,752
795,8	58,924
796,2	60,295
796,6	58,295
797,1	50,038
797,5	50,124
797,9	49,638
798,4	50,781
798,8	50,781
799,2	46,181
799,7	49,067
800,1	47,952
800,5	48,01
801	46,238
801,4	40,981
801,8	34,895
802,2	36,581
802,7	38,924
803,1	42,324
803,5	39,152
804	40,381
804,4	44,61
804,8	50,238
805,3	50,895
805,7	46,552
806,1	50,381
806,6	55,581
807	56,095
807,4	56,867
807,9	55,838
808,3	56,124
808,7	60,095
809,2	62,495
809,6	58,41
810	57,181
810,4	55,838
810,9	56,41
811,3	53,438
811,7	52,924
812,2	48,295
812,6	50,381
813	47,067
813,5	42,695
813,9	42,152
814,3	46,095
814,8	41,838
815,2	39,267
815,6	36,21
816,1	38,152
816,5	42,267
816,9	45,01
817,3	40,952
817,8	44,267
818,2	46,438
818,6	47,924
819,1	47,61
819,5	49,895
819,9	46,467
820,4	47,981
820,8	45,238
821,2	45,124
821,7	42,952
822,1	40,581
822,5	35,638
822,9	40,181
823,4	35,01
823,8	34,524
824,2	32,124
824,7	42,295
825,1	44,181
825,5	47,781
826	42,838
826,4	48,324
826,8	50,581
827,3	53,895
827,7	45,038
828,1	50,695
828,5	55,238
829	56,695
829,4	58,495
829,8	60,495
830,3	64,095
830,7	66,781
831,1	66,467
831,6	61,067
832	62,352
832,4	56,181
832,8	53,638
833,3	47,495
833,7	48,067
834,1	43,838
834,6	43,438
835	42,41
835,4	49,01
835,8	50,81
836,3	49,895
836,7	48,038
837,1	45,61
837,6	45,895
838	45,124
838,4	40,438
838,9	38,095
839,3	42,981
839,7	42,495
840,1	46,895
840,6	48,267
841	48,581
841,4	49,781
841,9	53,552
842,3	50,438
842,7	53,01
843,1	54,181
843,6	51,752
844	48,81
844,4	52,552
844,9	48,638
845,3	51,038
845,7	49,095
846,2	48,981
846,6	50,638
847	51,895
847,4	51,41
847,9	50,495
848,3	46,238
848,7	48,067
849,2	46,124
849,6	46,867
850	49,067
850,4	44,838
850,9	43,21
851,3	45,838
851,7	43,467
852,2	44,552
852,6	43,352
853	44,781
853,4	48,352
853,9	52,01
854,3	47,838
854,7	50,724
855,2	46,838
855,6	44,095
856	39,552
856,4	38,781
856,9	40,467
857,3	43,01
857,7	38,695
858,2	41,61
858,6	42,21
859	45,581
859,4	48,581
859,9	46,895
860,3	45,41
860,7	48,838
861,1	49,352
861,6	52,124
862	49,552
862,4	44,095
862,9	46,781
863,3	46,581
863,7	44,61
864,1	40,01
864,6	43,41
865	44,581
865,4	47,867
865,9	43,467
866,3	48,552
866,7	47,352
867,1	50,41
867,6	46,381
868	52,381
868,4	50,181
868,8	55,667
869,3	58,181
869,7	63,038
870,1	60,781
870,6	62,781
871	59,181
871,4	60,124
871,8	58,495
872,3	52,238
872,7	49,838
873,1	54,324
873,5	56,324
874	56,352
874,4	56,267
874,8	53,381
875,3	55,752
875,7	58,295
876,1	58,952
876,5	58,295
877	56,581
877,4	55,61
877,8	54,438
878,2	56,495
878,7	51,438
879,1	49,095
879,5	45,038
879,9	41,124
880,4	43,381
880,8	41,038
881,2	35,181
881,7	36,038
882,1	34,695
882,5	33,81
882,9	40,124
883,4	43,924
883,8	51,838
884,2	54,038
884,6	54,924
885,1	57,324
885,5	60,467
885,9	53,352
886,3	48,924
886,8	44,552
887,2	44,038
887,6	42,867
888	44,81
888,5	40,838
888,9	44,295
889,3	43,981
889,8	47,552
890,2	49,838
890,6	51,238
891	50,695
891,5	50,695
891,9	47,01
892,3	49,61
892,7	48,638
893,2	47,381
893,6	45,152
894	43,867
894,4	47,238
894,9	53,41
895,3	50,752
895,7	45,638
896,1	47,838
896,6	48,724
897	45,981
897,4	48,038
897,8	48,438
898,3	46,81
898,7	49,724
899,1	51,095
899,5	51,667
900	52,695
900,4	52,952
900,8	52,038
901,2	50,352
901,7	49,438
902,1	45,21
902,5	46,81
902,9	50,01
903,4	48,524
903,8	44,667
904,2	42,295
904,6	43,981
905,1	48,952
905,5	51,752
905,9	48,952
906,3	47,838
906,8	48,324
907,2	54,495
907,6	56,352
908	53,267
908,5	48,495
908,9	50,924
909,3	50,495
909,7	53,124
910,2	52,238
910,6	49,095
911	48,381
911,4	49,895
911,9	46,524
912,3	46,124
912,7	45,181
913,1	41,838
913,6	43,01
914	41,324
914,4	42,867
914,8	44,181
915,3	46,981
915,7	49,867
916,1	54,438
916,5	55,895
916,9	56,638
917,4	51,81
917,8	53,524
918,2	51,81
918,6	47,295
919,1	45,41
919,5	44,238
919,9	42,038
920,3	47,038
920,8	41,495
921,2	44,21
921,6	48,781
922	47,838
922,5	48,81
922,9	53,924
923,3	51,981
923,7	57,438
924,2	57,495
924,6	55,438
925	59,267
925,4	58,667
925,8	58,295
926,3	56,752
926,7	55,152
927,1	52,695
927,5	50,495
928	45,41
928,4	42,695
928,8	39,81
929,2	42,524
929,7	40,581
930,1	38,695
930,5	39,695
930,9	42,581
931,3	46,495
931,8	48,124
932,2	50,981
932,6	53,638
933	59,781
933,5	58,41
933,9	56,295
934,3	54,952
934,7	56,695
935,2	53,781
935,6	55,81
936	52,295
936,4	55,524
936,8	56,781
937,3	59,381
937,7	55,552
938,1	56,267
938,5	56,01
939	52,267
939,4	47,667
939,8	50,067
940,2	47,61
940,6	51,695
941,1	50,124
941,5	46,81
941,9	49,781
942,3	57,895
942,8	55,495
943,2	52,695
943,6	50,095
944	55,01
944,4	56,438
944,9	51,01
945,3	46,21
945,7	49,238
946,1	51,238
946,6	48,638
947	45,895
947,4	48,638
947,8	54,038
948,2	52,895
948,7	51,581
949,1	49,867
949,5	53,81
949,9	53,695
950,3	56,21
950,8	57,867
951,2	63,238
951,6	62,495
952	65,724
952,5	61,952
952,9	61,038
953,3	54,495
953,7	54,352
954,1	49,752
954,6	51,667
955	53,152
955,4	55,21
955,8	57,152
956,2	54,038
956,7	56,352
957,1	56,81
957,5	53,752
957,9	50,41
958,3	54,095
958,8	47,495
959,2	52,381
959,6	49,01
960	49,467
960,5	47,981
960,9	54,581
961,3	49,152
961,7	55,467
962,1	54,267
962,6	54,552
963	56,381
963,4	59,124
963,8	55,21
964,2	55,781
964,7	51,438
965,1	56,781
965,5	55,352
965,9	53,381
966,3	52,495
966,8	46,295
967,2	50,695
967,6	54,095
968	50,895
968,4	50,124
968,9	50,695
969,3	53,038
969,7	57,095
970,1	52,438
970,5	51,638
971	49,181
971,4	50,838
971,8	51,724
972,2	47,552
972,6	50,981
973,1	55,552
973,5	54,581
973,9	60,238
974,3	62,41
974,7	61,867
975,2	64,124
975,6	59,952
976	57,695
976,4	57,01
976,8	51,181
977,3	48,238
977,7	47,81
978,1	46,324
978,5	45,895
978,9	46,381
979,4	49,21
979,8	46,552
980,2	44,352
980,6	43,238
981	41,838
981,5	46,267
981,9	48,61
982,3	45,467
982,7	52,638
983,1	51,524
983,6	50,467
984	51,552
984,4	47,067
984,8	45,295
985,2	48,095
985,6	43,352
986,1	47,124
986,5	46,952
986,9	50,61
987,3	49,438
987,7	51,181
988,2	48,067
988,6	49,724
989	47,724
989,4	55,181
989,8	55,838
990,3	59,952
990,7	56,61
991,1	60,438
991,5	61,381
991,9	65,152
992,3	60,981
992,8	60,752
993,2	55,724
993,6	58,81
994	61,924
994,4	61,438
994,9	56,324
995,3	57,581
995,7	55,524
996,1	56,81
996,5	49,81
996,9	43,41
997,4	41,01
997,8	45,895
998,2	43,124
998,6	40,781
999	44,181
999,5	47,981
999,9	48,781
1000,3	51,152
1000,7	48,81
1001,1	46,552
1001,5	45,724
1002	43,81
1002,4	46,01
1002,8	47,667
1003,2	43,438
1003,6	42,238
1004	47,095
1004,5	49,495
1004,9	50,695
1005,3	50,067
1005,7	52,381
1006,1	54,867
1006,6	55,381
1007	51,381
1007,4	49,495
1007,8	52,41
1008,2	52,867
1008,6	52,495
1009,1	49,924
1009,5	54,324
1009,9	55,467
1010,3	54,81
1010,7	50,638
1011,1	48,01
1011,6	45,724
1012	49,152
1012,4	44,781
1012,8	42,781
1013,2	45,724
1013,6	50,438
1014,1	53,495
1014,5	56,095
1014,9	54,21
1015,3	56,581
1015,7	61,695
1016,1	59,495
1016,6	53,895
1017	50,381
1017,4	45,267
1017,8	44,352
1018,2	44,495
1018,6	37,124
1019,1	41,667
1019,5	40,61
1019,9	48,638
1020,3	47,495
1020,7	46,895
1021,1	41,952
1021,6	46,352
1022	46,381
1022,4	50,81
1022,8	46,581
1023,2	44,295
1023,6	49,552
1024,1	53,181
1024,5	54,152
1024,9	49,781
1025,3	46,067
1025,7	43,838
1026,1	47,552
1026,6	46,438
1027	49,638
1027,4	50,01
1027,8	53,895
1028,2	56,838
1028,6	54,124
1029	57,124
1029,5	57,438
1029,9	56,867
1030,3	57,752
1030,7	57,61
1031,1	60,638
1031,5	65,352
1032	60,01
1032,4	52,638
1032,8	52,152
1033,2	50,695
1033,6	48,152
1034	43,124
1034,4	38,552
1034,9	43,381
1035,3	48,667
1035,7	45,295
1036,1	47,667
1036,5	45,781
1036,9	50,438
1037,4	53,867
1037,8	53,438
1038,2	54,81
1038,6	57,267
1039	59,038
1039,4	64,352
1039,8	63,81
1040,3	64,952
1040,7	62,61
1041,1	65,438
1041,5	72,61
1041,9	69,467
1042,3	65,552
1042,7	59,095
1043,2	58,61
1043,6	62,981
1044	60,381
1044,4	57,695
1044,8	55,267
1045,2	58,038
1045,6	63,781
1046,1	65,781
1046,5	68,352
1046,9	71,267
1047,3	71,638
1047,7	76,552
1048,1	74,495
1048,5	71,581
1049	68,81
1049,4	68,952
1049,8	67,095
1050,2	65,352
1050,6	65,638
1051	69,524
1051,4	74,267
1051,9	80,01
1052,3	77,981
1052,7	81,667
1053,1	79,238
1053,5	78,324
1053,9	79,552
1054,3	82,124
1054,8	79,01
1055,2	72,867
1055,6	69,181
1056	69,21
1056,4	68,838
1056,8	66,152
1057,2	65,781
1057,6	64,295
1058,1	66,152
1058,5	66,724
1058,9	66,981
1059,3	63,638
1059,7	65,238
1060,1	60,952
1060,5	62,267
1061	66,924
1061,4	70,695
1061,8	69,638
1062,2	73,867
1062,6	73,21
1063	72,724
1063,4	72,238
1063,8	68,495
1064,3	61,41
1064,7	67,467
1065,1	69,267
1065,5	63,752
1065,9	59,152
1066,3	58,981
1066,7	61,61
1067,1	61,667
1067,6	56,067
1068	52,781
1068,4	55,61
1068,8	58,61
1069,2	59,21
1069,6	58,01
1070	64,095
1070,4	63,61
1070,9	62,381
1071,3	61,724
1071,7	61,781
1072,1	65,895
1072,5	65,524
1072,9	61,095
1073,3	55,952
1073,7	58,067
1074,2	56,924
1074,6	58,781
1075	49,781
1075,4	51,924
1075,8	49,238
1076,2	54,01
1076,6	52,981
1077	54,695
1077,5	50,638
1077,9	51,638
1078,3	45,524
1078,7	49,324
1079,1	47,581
1079,5	45,41
1079,9	48,81
1080,3	51,095
1080,7	55,41
1081,2	57,81
1081,6	53,01
1082	55,152
1082,4	56,61
1082,8	54,01
1083,2	50,524
1083,6	49,124
1084	49,152
1084,5	54,781
1084,9	59,01
1085,3	60,638
1085,7	62,495
1086,1	63,352
1086,5	64,01
1086,9	61,067
1087,3	59,781
1087,7	52,524
1088,2	45,695
1088,6	41,867
1089	44,21
1089,4	41,981
1089,8	45,467
1090,2	43,124
1090,6	44,352
1091	49,181
1091,4	51,41
1091,9	47,381
1092,3	44,381
1092,7	42,981
1093,1	42,667
1093,5	40,181
1093,9	38,21
1094,3	34,124
1094,7	39,181
1095,1	40,781
1095,5	39,581
1096	44,238
1096,4	44,352
1096,8	42,638
1097,2	46,352
1097,6	45,695
1098	48,01
1098,4	51,21
1098,8	44,895
1099,2	47,867
1099,6	49,61
1100,1	43,781
1100,5	39,61
1100,9	36,181
1101,3	33,324
1101,7	34,838
1102,1	32,267
1102,5	32,467
1102,9	36,352
1103,3	37,667
1103,7	36,838
1104,2	38,638
1104,6	38,381
1105	34,838
1105,4	32,781
1105,8	26,038
1106,2	21,781
1106,6	17,181
1107	10,295
1107,4	5,6
1107,8	5,467
1108,3	-0,533
