Data from Subt2_15.txt Node
Date: Thu Aug 24 16:45:28 MSK 2023
User: vat
Spectrometer: MAYP114033
Trigger mode: 0
Integration Time (sec): 1,000000E0
Scans to average: 5
Electric dark correction enabled: true
Nonlinearity correction enabled: false
Boxcar width: 3
XAxis mode: Wavelengths
Number of Pixels in Spectrum: 2068
>>>>>Begin Spectral Data<<<<<
199,4	1,417
199,9	0,847
200,4	5,8
200,8	4,995
201,3	7,338
201,8	12,681
202,2	10,367
202,7	9,652
203,2	9,624
203,6	9,081
204,1	11,338
204,6	8,11
205	5,481
205,5	7,538
206	8,395
206,4	9,824
206,9	9,652
207,4	6,995
207,8	6,452
208,3	4,967
208,8	4,824
209,2	10,024
209,7	9,681
210,2	9,881
210,6	10,481
211,1	11,681
211,5	9,252
212	8,252
212,5	5,595
212,9	6,367
213,4	0,481
213,9	-0,119
214,3	-1,948
214,8	1,51
215,3	9,31
215,7	7,052
216,2	9,081
216,7	16,424
217,1	18,881
217,6	19,138
218,1	9,567
218,5	13,538
219	12,824
219,5	3,367
219,9	0,052
220,4	-2,09
220,9	2,967
221,3	16,852
221,8	9,052
222,3	10,452
222,7	20,595
223,2	15,852
223,6	21,681
224,1	17,395
224,6	17,967
225	17,767
225,5	17,481
226	15,11
226,4	13,595
226,9	11,824
227,4	14,224
227,8	14,31
228,3	14,91
228,8	20,538
229,2	22,967
229,7	32,281
230,2	29,995
230,6	31,252
231,1	24,024
231,5	21,738
232	19,195
232,5	15,167
232,9	15,195
233,4	19,938
233,9	19,138
234,3	21,338
234,8	21,338
235,3	20,652
235,7	21,71
236,2	26,738
236,7	22,367
237,1	23,51
237,6	24,367
238,1	25,738
238,5	22,995
239	27,452
239,4	16,824
239,9	15,338
240,4	13,052
240,8	11,395
241,3	8,052
241,8	11,538
242,2	7,395
242,7	10,91
243,2	12,91
243,6	14,081
244,1	15,538
244,6	17,624
245	14,367
245,5	14,138
245,9	9,11
246,4	7,91
246,9	6,738
247,3	7,167
247,8	10,052
248,3	12,395
248,7	15,681
249,2	22,31
249,7	21,167
250,1	19,938
250,6	17,167
251	16,167
251,5	15,681
252	13,081
252,4	13,995
252,9	15,138
253,4	16,738
253,8	22,252
254,3	20,052
254,8	17,195
255,2	14,195
255,7	6,91
256,1	10,652
256,6	6,052
257,1	1,024
257,5	1,452
258	3,852
258,5	4,595
258,9	6,795
259,4	4,452
259,9	9,138
260,3	5,224
260,8	6,538
261,2	6,395
261,7	7,624
262,2	10,91
262,6	5,367
263,1	6,424
263,6	10,024
264	9,595
264,5	7,538
264,9	9,452
265,4	10,881
265,9	13,51
266,3	9,224
266,8	8,024
267,3	10,11
267,7	9,767
268,2	12,91
268,7	6,795
269,1	6,624
269,6	10,052
270	11,852
270,5	9,167
271	13,481
271,4	3,995
271,9	5,052
272,4	5,481
272,8	6,024
273,3	2,052
273,7	1,367
274,2	1,767
274,7	11,252
275,1	13,281
275,6	16,367
276,1	15,452
276,5	23,652
277	22,224
277,4	20,138
277,9	16,567
278,4	20,738
278,8	19,11
279,3	21,11
279,8	16,995
280,2	22,481
280,7	24,767
281,1	23,852
281,6	15,281
282,1	16,595
282,5	14,624
283	14,395
283,4	9,11
283,9	2,252
284,4	3,995
284,8	10,081
285,3	8,967
285,8	6,538
286,2	9,424
286,7	4,481
287,1	8,167
287,6	2,367
288,1	-2,119
288,5	-3,548
289	1,31
289,5	-3,062
289,9	3,11
290,4	0,938
290,8	4,881
291,3	5,595
291,8	4,11
292,2	0,938
292,7	3,367
293,1	8,395
293,6	10,852
294,1	7,052
294,5	6,595
295	8,281
295,5	9,767
295,9	7,852
296,4	3,424
296,8	9,31
297,3	16,567
297,8	17,767
298,2	20,738
298,7	20,652
299,1	28,681
299,6	31,367
300,1	25,881
300,5	27,567
301	33,824
301,5	28,967
301,9	25,91
302,4	12,052
302,8	10,681
303,3	8,881
303,8	3,052
304,2	-2,09
304,7	0,51
305,1	2,967
305,6	7,595
306,1	5,281
306,5	4,081
307	7,967
307,4	2,881
307,9	5,481
308,4	6,195
308,8	8,452
309,3	12,195
309,8	17,11
310,2	15,052
310,7	19,252
311,1	22,31
311,6	20,481
312,1	25,71
312,5	24,338
313	23,881
313,4	23,995
313,9	21,91
314,4	16,395
314,8	17,995
315,3	12,024
315,7	11,281
316,2	4,338
316,7	5,738
317,1	5,11
317,6	4,938
318	5,967
318,5	5,31
319	10,052
319,4	16,481
319,9	16,481
320,3	19,338
320,8	24,11
321,3	22,995
321,7	28,081
322,2	20,024
322,6	19,938
323,1	17,881
323,6	18,51
324	16,081
324,5	13,881
324,9	11,481
325,4	14,195
325,9	13,024
326,3	16,967
326,8	18,538
327,2	18,252
327,7	21,395
328,2	24,767
328,6	24,767
329,1	27,824
329,5	28,338
330	28,31
330,5	30,052
330,9	25,652
331,4	20,624
331,8	16,852
332,3	11,081
332,8	6,995
333,2	5,681
333,7	2,681
334,1	4,624
334,6	2,11
335,1	5,624
335,5	4,567
336	6,624
336,4	13,081
336,9	16,167
337,4	23,681
337,8	23,824
338,3	25,938
338,7	30,767
339,2	28,338
339,7	25,138
340,1	21,138
340,6	20,567
341	28,824
341,5	31,195
342	36,652
342,4	37,481
342,9	37,738
343,3	36,252
343,8	29,424
344,2	25,91
344,7	24,538
345,2	18,71
345,6	22,167
346,1	18,252
346,5	26,852
347	26,395
347,5	25,795
347,9	23,138
348,4	21,195
348,8	17,024
349,3	19,738
349,8	13,681
350,2	19,652
350,7	21,824
351,1	23,367
351,6	29,624
352	34,824
352,5	35,624
353	41,31
353,4	47,252
353,9	48,795
354,3	55,224
354,8	64,167
355,3	74,395
355,7	90,71
356,2	108,481
356,6	116,938
357,1	140,681
357,5	164,595
358	191,738
358,5	219,852
358,9	254,538
359,4	288,252
359,8	339,538
360,3	391,481
360,8	452,281
361,2	514,567
361,7	588,824
362,1	667,881
362,6	753,367
363	843,167
363,5	940,338
364	1035,11
364,4	1133,938
364,9	1240,795
365,3	1343,167
365,8	1438,252
366,3	1525,224
366,7	1605,967
367,2	1679,938
367,6	1747,367
368,1	1788,252
368,5	1819,024
369	1843,252
369,5	1858,481
369,9	1848,652
370,4	1832,538
370,8	1791,395
371,3	1750,252
371,7	1696,652
372,2	1629,281
372,7	1549,452
373,1	1467,51
373,6	1380,195
374	1297,31
374,5	1209,91
374,9	1123,881
375,4	1042,538
375,9	970,71
376,3	898,967
376,8	827,167
377,2	760,824
377,7	701,738
378,2	644,024
378,6	592,938
379,1	539,51
379,5	492,91
380	454,852
380,4	415,167
380,9	376,195
381,4	343,252
381,8	316,881
382,3	291,652
382,7	276,795
383,2	258,881
383,6	245,167
384,1	227,31
384,6	217,624
385	204,652
385,5	195,167
385,9	178,795
386,4	163,395
386,8	153,424
387,3	150,11
387,7	138,224
388,2	127,538
388,7	118,938
389,1	116,452
389,6	112,167
390	106,624
390,5	94,281
390,9	89,595
391,4	89,91
391,9	84,995
392,3	81,595
392,8	78,91
393,2	76,167
393,7	71,938
394,1	69,31
394,6	59,767
395,1	56,195
395,5	47,767
396	48,624
396,4	45,452
396,9	51,624
397,3	46,195
397,8	47,452
398,2	47,852
398,7	49,081
399,2	47,624
399,6	47,281
400,1	44,681
400,5	46,51
401	42,567
401,4	39,11
401,9	39,91
402,4	33,881
402,8	30,567
403,3	29,995
403,7	29,595
404,2	34,338
404,6	34,338
405,1	29,938
405,5	31,481
406	37,195
406,5	36,338
406,9	38,767
407,4	37,224
407,8	39,024
408,3	47,167
408,7	49,367
409,2	51,224
409,6	48,795
410,1	51,795
410,6	49,367
411	56,795
411,5	54,881
411,9	55,195
412,4	49,71
412,8	49,51
413,3	51,881
413,7	57,852
414,2	57,795
414,7	61,167
415,1	66,51
415,6	77,795
416	86,538
416,5	88,995
416,9	95,367
417,4	95,367
417,8	99,452
418,3	100,881
418,8	100,338
419,2	102,424
419,7	104,195
420,1	100,738
420,6	100,081
421	97,281
421,5	97,252
421,9	98,967
422,4	98,795
422,8	99,252
423,3	102,567
423,8	101,452
424,2	107,424
424,7	109,481
425,1	106,31
425,6	110,71
426	109,71
426,5	109,681
426,9	115,824
427,4	109,51
427,9	112,967
428,3	115,738
428,8	112,31
429,2	114,395
429,7	118,51
430,1	120,338
430,6	129,281
431	129,424
431,5	133,567
431,9	135,91
432,4	140,281
432,8	145,11
433,3	150,824
433,8	154,424
434,2	161,338
434,7	170,195
435,1	175,395
435,6	173,167
436	176,652
436,5	178,995
436,9	185,595
437,4	192,795
437,8	197,652
438,3	203,281
438,8	217,624
439,2	228,51
439,7	240,824
440,1	243,71
440,6	248,681
441	252,738
441,5	265,738
441,9	273,967
442,4	287,852
442,8	306,938
443,3	322,71
443,7	345,024
444,2	369,595
444,7	393,024
445,1	414,767
445,6	430,395
446	437,195
446,5	453,624
446,9	467,91
447,4	484,024
447,8	496,624
448,3	512,452
448,7	528,424
449,2	548,081
449,6	575,652
450,1	600,338
450,6	629,652
451	653,91
451,5	680,338
451,9	710,424
452,4	740,395
452,8	765,71
453,3	792,91
453,7	813,795
454,2	844,967
454,6	875,081
455,1	900,424
455,5	928,338
456	958,024
456,4	988,11
456,9	1024,395
457,3	1057,538
457,8	1087,538
458,3	1122,995
458,7	1161,252
459,2	1201,11
459,6	1232,71
460,1	1262,595
460,5	1297,452
461	1339,195
461,4	1371,795
461,9	1412,024
462,3	1451,424
462,8	1496,367
463,2	1534,91
463,7	1577,595
464,1	1624,652
464,6	1673,967
465	1716,481
465,5	1754,738
466	1799,767
466,4	1846,567
466,9	1890,538
467,3	1925,281
467,8	1966,967
468,2	2011,224
468,7	2057,881
469,1	2106,167
469,6	2151,595
470	2199,281
470,5	2250,224
470,9	2298,767
471,4	2339,024
471,8	2385,71
472,3	2419,252
472,7	2468,995
473,2	2516,252
473,6	2569,252
474,1	2614,852
474,5	2664,595
475	2713,824
475,4	2764,281
475,9	2810,11
476,4	2854,938
476,8	2887,395
477,3	2936,91
477,7	2983,424
478,2	3026,881
478,6	3071,938
479,1	3116,281
479,5	3162,081
480	3208,31
480,4	3239,852
480,9	3274,452
481,3	3308,881
481,8	3347,395
482,2	3384,91
482,7	3415,71
483,1	3454,395
483,6	3491,081
484	3530,338
484,5	3573,224
484,9	3606,624
485,4	3638,252
485,8	3671,481
486,3	3703,252
486,7	3738,338
487,2	3766,681
487,6	3791,281
488,1	3821,738
488,5	3843,424
489	3873,281
489,4	3898,367
489,9	3921,252
490,4	3953,367
490,8	3982,738
491,3	4007,338
491,7	4031,138
492,2	4050,452
492,6	4074,195
493,1	4093,395
493,5	4111,081
494	4125,224
494,4	4142,395
494,9	4164,081
495,3	4183,367
495,8	4196,481
496,2	4215,995
496,7	4233,167
497,1	4242,51
497,6	4253,567
498	4271,31
498,5	4287,767
498,9	4293,224
499,4	4305,338
499,8	4312,081
500,3	4326,195
500,7	4342,424
501,2	4344,91
501,6	4355,538
502,1	4369,795
502,5	4375,167
503	4384,681
503,4	4389,652
503,9	4394,452
504,3	4406,252
504,8	4408,024
505,2	4417,538
505,7	4431,424
506,1	4430,881
506,6	4438,395
507	4445,681
507,5	4445,995
507,9	4455,738
508,4	4462,052
508,8	4464,567
509,3	4475,738
509,7	4484,195
510,2	4484,567
510,6	4488,052
511,1	4482,224
511,5	4478,938
512	4484,938
512,4	4487,538
512,9	4488,452
513,3	4495,71
513,8	4500,281
514,2	4506,51
514,7	4506,681
515,1	4502,31
515,6	4505,424
516	4504,738
516,5	4499,71
516,9	4510,024
517,4	4515,852
517,8	4525,51
518,3	4532,738
518,7	4524,795
519,2	4534,595
519,6	4548,767
520,1	4545,681
520,5	4548,052
521	4556,195
521,4	4553,395
521,9	4570,338
522,3	4567,967
522,8	4569,652
523,2	4570,652
523,7	4567,338
524,1	4568,195
524,6	4578,567
525	4578,652
525,5	4582,91
525,9	4582,538
526,4	4584,052
526,8	4588,052
527,3	4589,738
527,7	4598,51
528,2	4602,052
528,6	4607,481
529,1	4608,024
529,5	4617,881
530	4622,967
530,4	4627,538
530,9	4627,281
531,3	4631,681
531,8	4636,167
532,2	4641,281
532,6	4647,652
533,1	4654,767
533,5	4659,624
534	4662,31
534,4	4663,224
534,9	4666,538
535,3	4668,967
535,8	4675,71
536,2	4683,024
536,7	4687,281
537,1	4691,567
537,6	4697,938
538	4707,652
538,5	4720,938
538,9	4718,424
539,4	4733,595
539,8	4740,938
540,3	4748,367
540,7	4757,852
541,2	4765,252
541,6	4771,624
542,1	4786,338
542,5	4784,595
543	4790,681
543,4	4798,538
543,9	4812,738
544,3	4814,452
544,8	4814,795
545,2	4812,167
545,7	4818,367
546,1	4823,338
546,5	4829,595
547	4828,252
547,4	4835,91
547,9	4853,738
548,3	4862,595
548,8	4873,938
549,2	4880,938
549,7	4893,138
550,1	4906,652
550,6	4921,567
551	4922,024
551,5	4934,538
551,9	4938,824
552,4	4952,138
552,8	4950,11
553,3	4954,624
553,7	4957,31
554,2	4968,367
554,6	4975,938
555,1	4983,995
555,5	4985,081
555,9	4984,195
556,4	4988,452
556,8	4986,424
557,3	4980,195
557,7	4980,452
558,2	4992,738
558,6	4997,967
559,1	5014,424
559,5	5012,71
560	5024,338
560,4	5039,595
560,9	5046,852
561,3	5033,681
561,8	5036,281
562,2	5039,024
562,7	5047,11
563,1	5052,995
563,6	5049,71
564	5047,71
564,4	5054,252
564,9	5056,538
565,3	5062,11
565,8	5064,738
566,2	5064,938
566,7	5068,024
567,1	5081,938
567,6	5083,652
568	5085,852
568,5	5084,395
568,9	5085,881
569,4	5084,71
569,8	5082,881
570,3	5071,338
570,7	5073,624
571,1	5075,852
571,6	5073,367
572	5074,795
572,5	5071,51
572,9	5078,224
573,4	5080,681
573,8	5080,567
574,3	5079,281
574,7	5080,938
575,2	5077,938
575,6	5078,11
576,1	5078,167
576,5	5074,681
576,9	5068,852
577,4	5059,195
577,8	5050,881
578,3	5041,195
578,7	5029,652
579,2	5015,624
579,6	5013,395
580,1	5011,052
580,5	5008,738
581	5004,967
581,4	5004,424
581,9	5013,652
582,3	5010,652
582,7	4996,538
583,2	4981,395
583,6	4974,024
584,1	4967,224
584,5	4952,281
585	4939,052
585,4	4923,71
585,9	4927,481
586,3	4923,024
586,8	4909,367
587,2	4897,395
587,6	4890,91
588,1	4874,195
588,5	4873,024
589	4860,138
589,4	4846,367
589,9	4839,71
590,3	4833,51
590,8	4824,11
591,2	4817,795
591,7	4809,452
592,1	4791,91
592,5	4792,767
593	4791,538
593,4	4786,881
593,9	4782,91
594,3	4771,567
594,8	4760,681
595,2	4754,452
595,7	4746,824
596,1	4739,195
596,6	4727,167
597	4719,71
597,4	4719,938
597,9	4716,967
598,3	4720,51
598,8	4710,395
599,2	4700,738
599,7	4690,624
600,1	4685,681
600,6	4668,51
601	4654,795
601,4	4637,424
601,9	4628,738
602,3	4616,395
602,8	4611,567
603,2	4599,767
603,7	4592,481
604,1	4579,795
604,6	4562,367
605	4549,538
605,4	4537,795
605,9	4515,652
606,3	4503,138
606,8	4492,51
607,2	4476,824
607,7	4470,852
608,1	4462,224
608,6	4443,395
609	4429,738
609,4	4411,367
609,9	4391,567
610,3	4376,595
610,8	4360,452
611,2	4331,681
611,7	4317,91
612,1	4309,452
612,6	4288,71
613	4268,995
613,4	4252,538
613,9	4236,767
614,3	4228,167
614,8	4208,224
615,2	4190,224
615,7	4176,738
616,1	4161,338
616,6	4155,11
617	4137,224
617,4	4120,767
617,9	4105,795
618,3	4089,567
618,8	4074,824
619,2	4074,881
619,7	4055,681
620,1	4038,967
620,5	4024,138
621	4014,51
621,4	3996,367
621,9	3980,624
622,3	3959,338
622,8	3937,795
623,2	3919,767
623,6	3897,738
624,1	3879,624
624,5	3859,195
625	3845,567
625,4	3826,367
625,9	3813,395
626,3	3798,967
626,8	3785,367
627,2	3762,481
627,6	3749,567
628,1	3720,538
628,5	3696,995
629	3675,481
629,4	3653,367
629,9	3632,081
630,3	3616,338
630,7	3590,167
631,2	3578,767
631,6	3557,138
632,1	3543,024
632,5	3531,995
633	3515,338
633,4	3496,367
633,8	3484,052
634,3	3461,452
634,7	3445,138
635,2	3418,967
635,6	3399,167
636,1	3382,795
636,5	3364,852
636,9	3349,51
637,4	3336,71
637,8	3325,852
638,3	3310,138
638,7	3287,71
639,2	3270,567
639,6	3257,995
640	3233,167
640,5	3215,195
640,9	3193,024
641,4	3184,938
641,8	3170,424
642,2	3157,567
642,7	3137,624
643,1	3128,51
643,6	3113,052
644	3099,652
644,5	3083,852
644,9	3070,852
645,3	3052,367
645,8	3039,71
646,2	3022,51
646,7	3005,938
647,1	2991,681
647,6	2971,881
648	2955,452
648,4	2943,367
648,9	2930,052
649,3	2921,71
649,8	2910,367
650,2	2894,167
650,6	2879,481
651,1	2863,567
651,5	2847,567
652	2828,081
652,4	2807,424
652,9	2792,024
653,3	2775,081
653,7	2758,681
654,2	2742,595
654,6	2724,052
655,1	2715,395
655,5	2707,395
655,9	2692,167
656,4	2680,338
656,8	2669,567
657,3	2655,481
657,7	2640,224
658,2	2625,452
658,6	2603,424
659	2586,081
659,5	2565,481
659,9	2548,767
660,4	2534,452
660,8	2521,71
661,2	2504,167
661,7	2483,624
662,1	2468,852
662,6	2456,138
663	2439,852
663,4	2423,224
663,9	2412,681
664,3	2392,681
664,8	2385,538
665,2	2371,795
665,6	2355,31
666,1	2332,081
666,5	2319,281
667	2292,795
667,4	2275,281
667,9	2255,052
668,3	2237,795
668,7	2223,938
669,2	2214,881
669,6	2206,938
670,1	2202,652
670,5	2189,024
670,9	2179,052
671,4	2164,052
671,8	2155,51
672,3	2144,481
672,7	2120,967
673,1	2103,738
673,6	2091,081
674	2078,024
674,5	2065,367
674,9	2054,738
675,3	2040,138
675,8	2033,452
676,2	2014,138
676,7	2007,11
677,1	1992,595
677,5	1980,024
678	1967,967
678,4	1957,281
678,9	1942,11
679,3	1934,281
679,7	1919,967
680,2	1908,51
680,6	1892,11
681,1	1876,767
681,5	1864,91
681,9	1848,481
682,4	1837,738
682,8	1821,91
683,3	1810,938
683,7	1803,624
684,1	1788,51
684,6	1770,567
685	1762,11
685,5	1750,138
685,9	1741,338
686,3	1725,252
686,8	1715,481
687,2	1707,967
687,7	1700,624
688,1	1687,624
688,5	1672,11
689	1656,367
689,4	1648,767
689,9	1638,11
690,3	1623,138
690,7	1611,738
691,2	1602,538
691,6	1598,967
692	1591,11
692,5	1579,195
692,9	1573,052
693,4	1561,452
693,8	1549,91
694,2	1537,081
694,7	1527,138
695,1	1518,995
695,6	1506,395
696	1488,767
696,4	1478,138
696,9	1468,681
697,3	1453,795
697,8	1436,738
698,2	1434,767
698,6	1430,51
699,1	1427,338
699,5	1420,052
699,9	1412,138
700,4	1410,024
700,8	1404,11
701,3	1387,424
701,7	1373,538
702,1	1362,138
702,6	1355,024
703	1349,795
703,5	1335,767
703,9	1326,567
704,3	1313,195
704,8	1306,481
705,2	1298,024
705,6	1290,567
706,1	1273,652
706,5	1269,881
707	1257,281
707,4	1252,852
707,8	1249,395
708,3	1235,681
708,7	1229,795
709,2	1221,767
709,6	1214,081
710	1207,11
710,5	1198,51
710,9	1187,081
711,3	1179,652
711,8	1169,167
712,2	1167,081
712,7	1164,538
713,1	1159,567
713,5	1157,881
714	1153,31
714,4	1143,51
714,8	1135,424
715,3	1129,052
715,7	1117,567
716,2	1115,624
716,6	1101,281
717	1090,881
717,5	1087,081
717,9	1076,252
718,3	1062,281
718,8	1052,138
719,2	1039,452
719,7	1032,71
720,1	1024,624
720,5	1020,652
721	1011,795
721,4	1007,024
721,8	1003,767
722,3	994,424
722,7	983,51
723,2	974,424
723,6	962,567
724	958,338
724,5	952,967
724,9	941,852
725,3	937,995
725,8	932,852
726,2	923,881
726,7	917,652
727,1	907,967
727,5	902,624
728	901,795
728,4	894,424
728,8	892,281
729,3	887,51
729,7	885,024
730,1	888,681
730,6	884,938
731	874,224
731,5	872,624
731,9	868,624
732,3	865,424
732,8	858,967
733,2	842,024
733,6	836,11
734,1	829,024
734,5	821,081
734,9	811,71
735,4	809,195
735,8	803,367
736,3	808,224
736,7	797,967
737,1	795,51
737,6	789,824
738	784,138
738,4	777,881
738,9	770,738
739,3	762,938
739,7	767,338
740,2	763,995
740,6	759,881
741,1	752,367
741,5	751,252
741,9	746,738
742,4	741,881
742,8	732,938
743,2	727,31
743,7	724,195
744,1	727,252
744,5	724,338
745	721,081
745,4	713,395
745,8	705,795
746,3	700,395
746,7	691,852
747,2	682,367
747,6	670,538
748	663,424
748,5	658,367
748,9	654,252
749,3	655,31
749,8	652,881
750,2	654,338
750,6	643,452
751,1	642,395
751,5	636,652
751,9	637,195
752,4	624,91
752,8	617,167
753,3	607,624
753,7	608,938
754,1	605,11
754,6	602,024
755	597,51
755,4	600,452
755,9	601,31
756,3	597,795
756,7	597,824
757,2	591,167
757,6	590,224
758	581,652
758,5	573,081
758,9	569,167
759,3	563,824
759,8	554,367
760,2	550,852
760,6	545,824
761,1	550,138
761,5	545,11
761,9	535,51
762,4	538,995
762,8	540,452
763,3	540,224
763,7	542,252
764,1	529,538
764,6	535,824
765	535,995
765,4	529,11
765,9	523,71
766,3	524,395
766,7	517,252
767,2	511,767
767,6	506,595
768	504,652
768,5	501,195
768,9	500,31
769,3	491,052
769,8	489,138
770,2	493,567
770,6	485,252
771,1	478,195
771,5	476,795
771,9	476,967
772,4	473,738
772,8	463,51
773,2	459,452
773,7	452,767
774,1	449,652
774,5	441,595
775	432,824
775,4	435,367
775,8	438,452
776,3	428,967
776,7	430,738
777,1	435,652
777,6	437,052
778	434,595
778,4	428,281
778,9	423,795
779,3	427,338
779,7	424,481
780,2	417,367
780,6	415,424
781	412,395
781,5	408,195
781,9	401,881
782,3	398,11
782,8	394,795
783,2	390,938
783,6	382,138
784,1	377,995
784,5	374,452
784,9	376,138
785,4	368,281
785,8	366,167
786,2	367,51
786,7	369,71
787,1	366,881
787,5	367,938
788	363,767
788,4	363,652
788,8	353,624
789,3	345,938
789,7	340,452
790,1	341,652
790,6	334,852
791	329,31
791,4	324,881
791,9	330,395
792,3	330,595
792,7	324,252
793,2	316,138
793,6	315,367
794	318,795
794,5	319,91
794,9	313,338
795,3	307,281
795,8	310,195
796,2	312,024
796,6	314,395
797,1	310,624
797,5	304,738
797,9	303,51
798,4	305,338
798,8	303,938
799,2	297,767
799,7	294,738
800,1	290,652
800,5	294,824
801	294,652
801,4	293,795
801,8	295,395
802,2	296,024
802,7	291,71
803,1	288,538
803,5	285,252
804	282,081
804,4	281,51
804,8	277,938
805,3	278,481
805,7	276,338
806,1	274,995
806,6	269,481
807	268,624
807,4	263,138
807,9	260,081
808,3	257,852
808,7	255,767
809,2	255,424
809,6	254,052
810	251,081
810,4	251,795
810,9	247,224
811,3	245,481
811,7	243,195
812,2	240,081
812,6	240,938
813	241,452
813,5	235,481
813,9	239,452
814,3	234,338
814,8	236,51
815,2	235,024
815,6	233,052
816,1	230,081
816,5	226,767
816,9	216,195
817,3	215,395
817,8	205,11
818,2	205,31
818,6	202,824
819,1	195,91
819,5	197,167
819,9	199,195
820,4	199,595
820,8	202,281
821,2	198,052
821,7	197,738
822,1	200,481
822,5	196,452
822,9	194,881
823,4	194,652
823,8	189,881
824,2	192,081
824,7	187,595
825,1	182,624
825,5	179,367
826	182,938
826,4	187,024
826,8	187,052
827,3	187,252
827,7	188,195
828,1	189,138
828,5	190,967
829	183,538
829,4	175,081
829,8	174,91
830,3	170,567
830,7	169,11
831,1	168,795
831,6	167,024
832	166,167
832,4	162,452
832,8	158,852
833,3	152,938
833,7	153,424
834,1	156,538
834,6	155,195
835	156,995
835,4	158,224
835,8	158,338
836,3	159,624
836,7	150,767
837,1	143,281
837,6	142,71
838	140,538
838,4	131,138
838,9	129,938
839,3	129,338
839,7	136,081
840,1	136,052
840,6	134,567
841	131,195
841,4	137,281
841,9	137,624
842,3	141,738
842,7	137,452
843,1	134,595
843,6	130,738
844	130,91
844,4	126,567
844,9	125,595
845,3	123,138
845,7	121,881
846,2	122,167
846,6	122,738
847	123,538
847,4	124,995
847,9	124,481
848,3	122,31
848,7	122,538
849,2	123,481
849,6	126,595
850	123,224
850,4	126,738
850,9	119,11
851,3	113,824
851,7	114,31
852,2	108,824
852,6	112,11
853	110,881
853,4	105,71
853,9	111,195
854,3	114,224
854,7	108,795
855,2	109,052
855,6	103,224
856	101,224
856,4	101,138
856,9	100,624
857,3	102,852
857,7	108,338
858,2	108,938
858,6	103,795
859	107,452
859,4	109,51
859,9	108,91
860,3	103,567
860,7	101,395
861,1	99,738
861,6	106,052
862	105,595
862,4	104,995
862,9	104,424
863,3	108,738
863,7	105,567
864,1	104,767
864,6	101,567
865	102,395
865,4	94,452
865,9	93,024
866,3	85,167
866,7	85,881
867,1	86,938
867,6	82,795
868	76,938
868,4	83,91
868,8	83,795
869,3	83,967
869,7	78,595
870,1	85,195
870,6	87,338
871	189,767
871,4	179,452
871,8	180,252
872,3	181,995
872,7	180,652
873,1	170,31
873,5	178,167
874	71,338
874,4	78,681
874,8	76,224
875,3	70,681
875,7	77,195
876,1	81,881
876,5	72,681
877	72,767
877,4	67,11
877,8	60,71
878,2	64,224
878,7	59,224
879,1	57,367
879,5	52,652
879,9	54,481
880,4	53,624
880,8	60,852
881,2	56,938
881,7	57,738
882,1	56,252
882,5	60,281
882,9	57,252
883,4	60,338
883,8	54,224
884,2	56,481
884,6	52,167
885,1	51,424
885,5	49,51
885,9	55,852
886,3	55,738
886,8	59,024
887,2	60,538
887,6	67,167
888	69,281
888,5	70,824
888,9	60,138
889,3	59,624
889,8	59,31
890,2	57,967
890,6	58,652
891	49,595
891,5	48,024
891,9	55,452
892,3	55,367
892,7	50,252
893,2	50,424
893,6	48,51
894	51,938
894,4	50,281
894,9	49,367
895,3	50,367
895,7	54,681
896,1	51,738
896,6	49,481
897	53,538
897,4	56,252
897,8	59,367
898,3	58,938
898,7	63,052
899,1	63,338
899,5	59,824
900	61,938
900,4	64,824
900,8	60,51
901,2	60,338
901,7	51,91
902,1	53,052
902,5	52,995
902,9	46,281
903,4	40,51
903,8	42,767
904,2	44,481
904,6	47,481
905,1	46,595
905,5	48,538
905,9	50,795
906,3	49,967
906,8	49,224
907,2	46,11
907,6	48,681
908	47,652
908,5	50,281
908,9	51,195
909,3	53,995
909,7	55,31
910,2	51,71
910,6	49,081
911	45,252
911,4	40,567
911,9	37,424
912,3	34,052
912,7	33,338
913,1	33,938
913,6	30,452
914	32,367
914,4	35,71
914,8	35,824
915,3	36,91
915,7	35,395
916,1	31,367
916,5	33,795
916,9	33,681
917,4	31,624
917,8	30,595
918,2	27,652
918,6	31,167
919,1	35,624
919,5	39,91
919,9	42,11
920,3	38,91
920,8	38,167
921,2	42,738
921,6	36,024
922	33,024
922,5	23,252
922,9	24,91
923,3	25,281
923,7	31,71
924,2	29,195
924,6	34,452
925	32,91
925,4	40,595
925,8	37,024
926,3	40,31
926,7	32,824
927,1	37,224
927,5	33,052
928	38,138
928,4	32,31
928,8	29,652
929,2	30,652
929,7	31,595
930,1	27,081
930,5	26,852
930,9	27,424
931,3	29,195
931,8	38,481
932,2	31,052
932,6	33,167
933	32,938
933,5	36,052
933,9	34,452
934,3	35,11
934,7	29,652
935,2	30,252
935,6	31,567
936	30,624
936,4	20,395
936,8	20,081
937,3	23,738
937,7	20,195
938,1	21,852
938,5	18,052
939	15,538
939,4	18,052
939,8	19,338
940,2	15,595
940,6	19,967
941,1	19,452
941,5	18,938
941,9	24,852
942,3	31,681
942,8	32,395
943,2	34,281
943,6	32,024
944	32,395
944,4	35,224
944,9	30,852
945,3	21,395
945,7	18,767
946,1	17,681
946,6	13,881
947	18,195
947,4	16,167
947,8	14,995
948,2	22,71
948,7	21,338
949,1	21,938
949,5	18,138
949,9	12,138
950,3	7,938
950,8	9,367
951,2	11,367
951,6	10,338
952	11,824
952,5	18,652
952,9	16,452
953,3	23,681
953,7	23,167
954,1	15,767
954,6	18,395
955	15,081
955,4	16,195
955,8	17,767
956,2	17,738
956,7	20,138
957,1	21,824
957,5	18,052
957,9	16,824
958,3	12,395
958,8	14,452
959,2	9,995
959,6	10,024
960	13,595
960,5	21,224
960,9	20,31
961,3	22,795
961,7	24,967
962,1	34,595
962,6	31,195
963	25,481
963,4	14,538
963,8	13,767
964,2	17,595
964,7	15,567
965,1	11,995
965,5	8,595
965,9	15,31
966,3	24,795
966,8	29,71
967,2	25,052
967,6	28,767
968	22,395
968,4	25,624
968,9	22,052
969,3	18,252
969,7	14,281
970,1	20,938
970,5	15,738
971	18,738
971,4	16,252
971,8	14,624
972,2	16,795
972,6	16,452
973,1	14,367
973,5	16,795
973,9	13,052
974,3	10,938
974,7	16,138
975,2	14,281
975,6	9,567
976	8,424
976,4	3,024
976,8	6,395
977,3	12,31
977,7	11,395
978,1	8,595
978,5	11,367
978,9	13,424
979,4	17,395
979,8	13,567
980,2	14,967
980,6	13,795
981	14,967
981,5	16,91
981,9	14,881
982,3	16,824
982,7	25,424
983,1	25,824
983,6	25,567
984	33,167
984,4	30,081
984,8	26,281
985,2	22,11
985,6	15,252
986,1	9,195
986,5	11,252
986,9	6,967
987,3	12,167
987,7	18,624
988,2	23,052
988,6	21,395
989	26,024
989,4	26,367
989,8	25,195
990,3	25,195
990,7	22,767
991,1	19,338
991,5	21,738
991,9	27,252
992,3	20,367
992,8	22,052
993,2	21,481
993,6	21,195
994	18,481
994,4	17,395
994,9	16,967
995,3	16,395
995,7	11,938
996,1	8,767
996,5	8,11
996,9	13,681
997,4	12,024
997,8	4,11
998,2	4,995
998,6	6,995
999	10,91
999,5	6,367
999,9	8,424
1000,3	13,967
1000,7	13,31
1001,1	13,452
1001,5	16,881
1002	12,681
1002,4	20,167
1002,8	14,738
1003,2	14,595
1003,6	16,51
1004	18,967
1004,5	16,338
1004,9	16,052
1005,3	13,767
1005,7	15,31
1006,1	11,824
1006,6	12,281
1007	14,424
1007,4	9,595
1007,8	11,11
1008,2	9,767
1008,6	10,91
1009,1	12,538
1009,5	11,11
1009,9	9,338
1010,3	15,91
1010,7	14,795
1011,1	10,367
1011,6	16,652
1012	16,938
1012,4	12,51
1012,8	15,567
1013,2	13,652
1013,6	18,91
1014,1	20,91
1014,5	12,938
1014,9	7,795
1015,3	10,538
1015,7	7,71
1016,1	7,852
1016,6	2,052
1017	5,252
1017,4	10,738
1017,8	16,51
1018,2	17,652
1018,6	18,081
1019,1	14,795
1019,5	14,538
1019,9	10,91
1020,3	6,795
1020,7	3,71
1021,1	3,767
1021,6	5,424
1022	12,538
1022,4	11,51
1022,8	16,338
1023,2	16,338
1023,6	16,395
1024,1	21,624
1024,5	23,195
1024,9	17,938
1025,3	21,995
1025,7	23,824
1026,1	23,424
1026,6	23,481
1027	21,767
1027,4	12,31
1027,8	13,91
1028,2	16,11
1028,6	12,91
1029	11,281
1029,5	15,024
1029,9	12,367
1030,3	20,595
1030,7	10,995
1031,1	10,367
1031,5	6,452
1032	8,595
1032,4	2,795
1032,8	7,11
1033,2	4,252
1033,6	7,281
1034	7,138
1034,4	7,338
1034,9	8,452
1035,3	10,567
1035,7	9,652
1036,1	11,224
1036,5	14,081
1036,9	5,567
1037,4	4,281
1037,8	3,052
1038,2	6,452
1038,6	9,624
1039	5,738
1039,4	13,995
1039,8	25,081
1040,3	30,395
1040,7	33,11
1041,1	32,71
1041,5	25,51
1041,9	25,424
1042,3	24,852
1042,7	21,738
1043,2	20,51
1043,6	17,938
1044	12,767
1044,4	13,881
1044,8	18,281
1045,2	18,081
1045,6	17,052
1046,1	19,538
1046,5	18,338
1046,9	26,424
1047,3	29,738
1047,7	31,252
1048,1	28,795
1048,5	31,281
1049	26,852
1049,4	29,395
1049,8	24,452
1050,2	21,567
1050,6	20,938
1051	21,395
1051,4	24,395
1051,9	28,195
1052,3	31,91
1052,7	35,367
1053,1	35,052
1053,5	36,224
1053,9	31,652
1054,3	29,767
1054,8	28,938
1055,2	21,938
1055,6	20,367
1056	22,567
1056,4	17,681
1056,8	18,538
1057,2	16,195
1057,6	18,224
1058,1	17,024
1058,5	11,652
1058,9	12,052
1059,3	11,424
1059,7	8,395
1060,1	11,538
1060,5	9,424
1061	14,024
1061,4	20,281
1061,8	20,624
1062,2	24,195
1062,6	33,11
1063	27,138
1063,4	30,11
1063,8	29,081
1064,3	28,881
1064,7	21,824
1065,1	24,567
1065,5	20,167
1065,9	23,424
1066,3	19,252
1066,7	20,281
1067,1	20,11
1067,6	25,11
1068	21,11
1068,4	19,367
1068,8	20,195
1069,2	21,195
1069,6	17,738
1070	14,795
1070,4	20,71
1070,9	26,424
1071,3	28,71
1071,7	23,595
1072,1	23,338
1072,5	26,767
1072,9	24,767
1073,3	22,595
1073,7	20,71
1074,2	19,624
1074,6	25,338
1075	28,138
1075,4	26,681
1075,8	31,538
1076,2	25,595
1076,6	20,51
1077	23,424
1077,5	20,424
1077,9	17,538
1078,3	15,938
1078,7	15,852
1079,1	20,224
1079,5	23,024
1079,9	15,824
1080,3	17,367
1080,7	14,367
1081,2	17,538
1081,6	10,252
1082	4,538
1082,4	4,538
1082,8	8,452
1083,2	9,367
1083,6	10,167
1084	7,71
1084,5	19,281
1084,9	21,51
1085,3	19,652
1085,7	17,967
1086,1	17,052
1086,5	16,852
1086,9	19,195
1087,3	13,224
1087,7	15,681
1088,2	14,338
1088,6	17,51
1089	12,995
1089,4	16,824
1089,8	16,795
1090,2	19,567
1090,6	19,995
1091	25,91
1091,4	25,91
1091,9	31,624
1092,3	33,795
1092,7	37,652
1093,1	35,167
1093,5	30,195
1093,9	27,424
1094,3	28,681
1094,7	28,224
1095,1	22,538
1095,5	21,481
1096	19,195
1096,4	24,738
1096,8	24,424
1097,2	23,138
1097,6	22,938
1098	25,595
1098,4	21,967
1098,8	22,852
1099,2	23,71
1099,6	19,138
1100,1	17,138
1100,5	15,995
1100,9	13,624
1101,3	12,51
1101,7	11,31
1102,1	9,624
1102,5	13,91
1102,9	20,224
1103,3	19,538
1103,7	21,281
1104,2	18,795
1104,6	18,967
1105	16,024
1105,4	13,71
1105,8	6,424
1106,2	4,452
1106,6	2,395
1107	2,51
1107,4	2,067
1107,8	1,687
1108,3	-0,433
