Data from Subt2_00055.txt Node
Date: Mon Aug 28 13:21:16 MSK 2023
User: vat
Spectrometer: MAYP114033
Trigger mode: 0
Integration Time (sec): 1,000000E0
Scans to average: 5
Electric dark correction enabled: true
Nonlinearity correction enabled: false
Boxcar width: 3
XAxis mode: Wavelengths
Number of Pixels in Spectrum: 2068
>>>>>Begin Spectral Data<<<<<
199,4	0,433
199,9	4,873
200,4	7,467
200,8	11,405
201,3	12,919
201,8	13,605
202,2	18,005
202,7	20,633
203,2	17,805
203,6	18,405
204,1	16,433
204,6	18,29
205	22,89
205,5	23,462
206	25,376
206,4	30,262
206,9	30,005
207,4	31,433
207,8	29,919
208,3	29,633
208,8	27,948
209,2	28,748
209,7	24,433
210,2	20,119
210,6	17,833
211,1	18,919
211,5	22,748
212	22,633
212,5	24,119
212,9	27,833
213,4	36,776
213,9	40,805
214,3	42,862
214,8	38,405
215,3	41,262
215,7	39,976
216,2	43,89
216,7	39,462
217,1	37,49
217,6	35,576
218,1	36,748
218,5	37,319
219	37,862
219,5	33,176
219,9	35,262
220,4	35,119
220,9	35,319
221,3	33,062
221,8	33,119
222,3	31,29
222,7	32,462
223,2	30,89
223,6	33,148
224,1	35,062
224,6	33,662
225	31,519
225,5	30,548
226	31,319
226,4	32,776
226,9	31,148
227,4	31,919
227,8	39,433
228,3	41,119
228,8	39,862
229,2	40,119
229,7	37,919
230,2	32,719
230,6	31,405
231,1	27,548
231,5	29,262
232	36,005
232,5	37,176
232,9	35,148
233,4	38,805
233,9	38,605
234,3	32,833
234,8	27,49
235,3	18,005
235,7	14,605
236,2	12,376
236,7	9,09
237,1	17,262
237,6	20,719
238,1	21,319
238,5	26,433
239	24,09
239,4	29,89
239,9	36,433
240,4	26,119
240,8	27,49
241,3	33,119
241,8	30,662
242,2	36,148
242,7	38,376
243,2	38,976
243,6	41,948
244,1	42,233
244,6	43,376
245	49,348
245,5	50,033
245,9	45,148
246,4	43,205
246,9	42,805
247,3	41,005
247,8	32,89
248,3	32,948
248,7	29,462
249,2	27,833
249,7	26,319
250,1	26,605
250,6	28,376
251	28,462
251,5	28,548
252	28,005
252,4	33,519
252,9	29,633
253,4	30,976
253,8	33,319
254,3	35,948
254,8	30,976
255,2	32,033
255,7	32,976
256,1	36,09
256,6	36,062
257,1	31,833
257,5	29,233
258	27,176
258,5	25,233
258,9	25,633
259,4	27,319
259,9	22,69
260,3	20,576
260,8	24,376
261,2	30,433
261,7	29,748
262,2	25,005
262,6	25,519
263,1	29,176
263,6	33,062
264	28,49
264,5	24,005
264,9	26,376
265,4	26,348
265,9	23,805
266,3	25,89
266,8	25,748
267,3	30,862
267,7	28,833
268,2	29,49
268,7	27,519
269,1	28,862
269,6	29,033
270	33,348
270,5	32,119
271	37,662
271,4	33,576
271,9	39,119
272,4	39,633
272,8	38,119
273,3	33,833
273,7	30,319
274,2	31,348
274,7	33,348
275,1	30,319
275,6	31,205
276,1	28,662
276,5	30,033
277	31,605
277,4	28,862
277,9	28,919
278,4	26,062
278,8	27,49
279,3	24,405
279,8	17,319
280,2	14,433
280,7	13,776
281,1	14,919
281,6	17,948
282,1	16,89
282,5	21,433
283	24,548
283,4	25,519
283,9	25,719
284,4	25,348
284,8	25,062
285,3	24,748
285,8	25,262
286,2	23,576
286,7	26,719
287,1	29,919
287,6	30,233
288,1	36,176
288,5	34,29
289	34,119
289,5	38,719
289,9	43,433
290,4	43,776
290,8	46,862
291,3	41,89
291,8	45,405
292,2	42,948
292,7	44,005
293,1	38,033
293,6	32,862
294,1	32,033
294,5	32,033
295	30,262
295,5	28,719
295,9	24,662
296,4	25,376
296,8	30,205
297,3	26,319
297,8	24,833
298,2	27,09
298,7	31,719
299,1	34,948
299,6	34,862
300,1	33,433
300,5	35,348
301	37,433
301,5	32,005
301,9	32,776
302,4	28,233
302,8	28,319
303,3	26,348
303,8	25,376
304,2	22,948
304,7	24,862
305,1	21,033
305,6	25,176
306,1	21,833
306,5	24,662
307	26,433
307,4	24,376
307,9	26,033
308,4	29,948
308,8	27,719
309,3	31,233
309,8	30,605
310,2	30,176
310,7	35,433
311,1	35,033
311,6	32,348
312,1	30,062
312,5	27,69
313	22,948
313,4	27,605
313,9	26,69
314,4	24,548
314,8	24,462
315,3	33,976
315,7	34,69
316,2	40,233
316,7	32,948
317,1	32,719
317,6	30,433
318	30,519
318,5	25,976
319	27,919
319,4	29,005
319,9	30,148
320,3	28,205
320,8	35,548
321,3	33,09
321,7	29,576
322,2	28,062
322,6	23,519
323,1	22,919
323,6	23,633
324	20,205
324,5	25,348
324,9	27,29
325,4	27,49
325,9	32,405
326,3	34,49
326,8	36,662
327,2	34,69
327,7	28,49
328,2	29,69
328,6	28,833
329,1	25,576
329,5	21,548
330	20,148
330,5	21,433
330,9	21,233
331,4	23,748
331,8	26,605
332,3	26,919
332,8	26,005
333,2	25,176
333,7	23,433
334,1	29,119
334,6	24,919
335,1	26,548
335,5	25,662
336	28,176
336,4	30,176
336,9	31,29
337,4	27,719
337,8	30,433
338,3	32,233
338,7	30,033
339,2	32,205
339,7	32,519
340,1	31,833
340,6	33,148
341	27,605
341,5	26,948
342	31,805
342,4	34,176
342,9	35,405
343,3	36,005
343,8	36,005
344,2	41,319
344,7	41,805
345,2	38,119
345,6	35,548
346,1	34,548
346,5	35,948
347	37,776
347,5	35,205
347,9	30,633
348,4	28,748
348,8	26,49
349,3	32,976
349,8	35,462
350,2	37,833
350,7	41,29
351,1	47,062
351,6	52,49
352	58,376
352,5	56,062
353	60,719
353,4	64,833
353,9	74,062
354,3	82,919
354,8	96,348
355,3	110,862
355,7	124,89
356,2	143,148
356,6	167,176
357,1	191,69
357,5	219,748
358	252,862
358,5	295,348
358,9	339,605
359,4	391,319
359,8	451,09
360,3	510,833
360,8	581,948
361,2	663,948
361,7	746,376
362,1	845,719
362,6	949,29
363	1058,776
363,5	1182,319
364	1314,433
364,4	1447,033
364,9	1583,69
365,3	1716,348
365,8	1844,462
366,3	1962,405
366,7	2073,719
367,2	2162,862
367,6	2239,119
368,1	2301,919
368,5	2348,662
369	2375,262
369,5	2383,376
369,9	2367,033
370,4	2337,548
370,8	2292,376
371,3	2224,576
371,7	2152,405
372,2	2062,805
372,7	1967,662
373,1	1870,976
373,6	1768,919
374	1660,09
374,5	1554,233
374,9	1441,348
375,4	1343,49
375,9	1240,89
376,3	1146,119
376,8	1061,119
377,2	976,605
377,7	908,262
378,2	841,633
378,6	774,89
379,1	720,719
379,5	665,862
380	609,433
380,4	564,69
380,9	515,09
381,4	478,662
381,8	445,262
382,3	412,519
382,7	381,919
383,2	356,376
383,6	336,49
384,1	319,348
384,6	298,776
385	282,833
385,5	263,69
385,9	251,319
386,4	239,748
386,8	222,633
387,3	208,633
387,7	191,862
388,2	176,176
388,7	169,748
389,1	155,69
389,6	145,748
390	141,948
390,5	132,205
390,9	125,205
391,4	114,548
391,9	107,976
392,3	109,748
392,8	106,005
393,2	104,348
393,7	99,605
394,1	99,29
394,6	99,662
395,1	100,69
395,5	94,176
396	89,576
396,4	82,09
396,9	84,033
397,3	82,205
397,8	79,033
398,2	71,262
398,7	70,29
399,2	69,376
399,6	68,976
400,1	70,033
400,5	72,148
401	78,776
401,4	80,176
401,9	78,89
402,4	81,319
402,8	80,833
403,3	76,09
403,7	72,433
404,2	71,948
404,6	71,576
405,1	76,89
405,5	76,348
406	77,005
406,5	81,833
406,9	86,462
407,4	86,748
407,8	92,405
408,3	95,062
408,7	97,005
409,2	101,062
409,6	105,69
410,1	107,319
410,6	115,033
411	118,462
411,5	123,462
411,9	135,948
412,4	146,29
412,8	154,405
413,3	167,605
413,7	180,062
414,2	190,919
414,7	205,005
415,1	212,433
415,6	217,719
416	230,233
416,5	242,948
416,9	249,319
417,4	266,976
417,8	280,662
418,3	295,833
418,8	319,319
419,2	334,262
419,7	346,862
420,1	362,69
420,6	376,49
421	395,862
421,5	418,176
421,9	438,719
422,4	465,062
422,8	490,576
423,3	516,49
423,8	541,605
424,2	569,033
424,7	595,348
425,1	624,319
425,6	650,348
426	684,633
426,5	723,205
426,9	761,605
427,4	795,29
427,9	836,919
428,3	879,633
428,8	927,605
429,2	969,948
429,7	1014,919
430,1	1065,805
430,6	1119,805
431	1178,09
431,5	1235,348
431,9	1297,748
432,4	1363,833
432,8	1436,69
433,3	1509,662
433,8	1592,919
434,2	1665,919
434,7	1750,29
435,1	1840,005
435,6	1932,748
436	2026,29
436,5	2121,433
436,9	2222,662
437,4	2333,69
437,8	2438,462
438,3	2547,005
438,8	2662,948
439,2	2786,262
439,7	2918,662
440,1	3037,433
440,6	3174,005
441	3319,719
441,5	3466,633
441,9	3615,29
442,4	3769,548
442,8	3930,662
443,3	4100,29
443,7	4271,233
444,2	4448,319
444,7	4627,262
445,1	4814,433
445,6	5011,605
446	5206,662
446,5	5410,548
446,9	5615,148
447,4	5829,576
447,8	6043,548
448,3	6267,976
448,7	6481,805
449,2	6705,833
449,6	6940,976
450,1	7183,976
450,6	7417,319
451	7667,548
451,5	7925,69
451,9	8192,148
452,4	8456,29
452,8	8727,576
453,3	8982,09
453,7	9261,148
454,2	9544,176
454,6	9826,719
455,1	10111,976
455,5	10403,262
456	10688,719
456,4	11003,662
456,9	11308,776
457,3	11620,376
457,8	11918,005
458,3	12235,919
458,7	12549,719
459,2	12871,29
459,6	13187,176
460,1	13513,405
460,5	13821,376
461	14144,205
461,4	14460,49
461,9	14767,519
462,3	15083,233
462,8	15405,376
463,2	15727,548
463,7	16050,519
464,1	16370,033
464,6	16687,319
465	17006,576
465,5	17316,976
466	17629,948
466,4	17930,748
466,9	18251,262
467,3	18564,062
467,8	18879,719
468,2	19207,148
468,7	19536,633
469,1	19833,462
469,6	20145,148
470	20431,176
470,5	20726,119
470,9	21009,262
471,4	21280,348
471,8	21531,376
472,3	21804,376
472,7	22058,719
473,2	22332,119
473,6	22574,576
474,1	22818,862
474,5	23083,605
475	23347,09
475,4	23597,348
475,9	23830,548
476,4	24051,576
476,8	24280,433
477,3	24495,119
477,7	24692,605
478,2	24871,548
478,6	25060,776
479,1	25236,948
479,5	25411,205
480	25573,805
480,4	25738,29
480,9	25891,605
481,3	26050,376
481,8	26176,976
482,2	26312,433
482,7	26435,348
483,1	26578,205
483,6	26678,519
484	26771,49
484,5	26858,062
484,9	26934,548
485,4	26996,519
485,8	27040,405
486,3	27073,919
486,7	27126,005
487,2	27167,119
487,6	27178,519
488,1	27204,89
488,5	27227,776
489	27251,49
489,4	27243,633
489,9	27237,862
490,4	27228,176
490,8	27221,033
491,3	27195,662
491,7	27173,062
492,2	27129,519
492,6	27098,633
493,1	27043,576
493,5	26974,69
494	26909,462
494,4	26851,69
494,9	26768,205
495,3	26687,69
495,8	26598,605
496,2	26498,948
496,7	26409,033
497,1	26311,119
497,6	26195,519
498	26087,89
498,5	25978,519
498,9	25876,319
499,4	25763,462
499,8	25633,148
500,3	25510,49
500,7	25388,519
501,2	25262,176
501,6	25124,033
502,1	24972,262
502,5	24836,862
503	24713,49
503,4	24574,662
503,9	24428,462
504,3	24281,576
504,8	24133,69
505,2	23974,033
505,7	23808,919
506,1	23635,433
506,6	23456,005
507	23275,548
507,5	23093,662
507,9	22921,919
508,4	22746,062
508,8	22566,576
509,3	22374,148
509,7	22200,519
510,2	22020,033
510,6	21841,062
511,1	21651,862
511,5	21461,89
512	21276,176
512,4	21096,319
512,9	20910,262
513,3	20730,833
513,8	20538,948
514,2	20343,319
514,7	20149,719
515,1	19955,976
515,6	19759,119
516	19565,062
516,5	19366,205
516,9	19171,748
517,4	18973,576
517,8	18785,376
518,3	18593,49
518,7	18402,233
519,2	18205,69
519,6	18010,09
520,1	17818,319
520,5	17631,119
521	17437,519
521,4	17246,205
521,9	17062,633
522,3	16875,148
522,8	16688,548
523,2	16500,09
523,7	16322,633
524,1	16134,862
524,6	15959,233
525	15785,748
525,5	15608,205
525,9	15436,319
526,4	15266,89
526,8	15098,776
527,3	14942,976
527,7	14777,748
528,2	14602,29
528,6	14437,576
529,1	14273,033
529,5	14105,633
530	13938,376
530,4	13771,976
530,9	13605,776
531,3	13458,29
531,8	13306,262
532,2	13146,148
532,6	13005,719
533,1	12860,319
533,5	12714,548
534	12575,948
534,4	12427,719
534,9	12288,862
535,3	12157,433
535,8	12014,948
536,2	11877,805
536,7	11746,748
537,1	11597,548
537,6	11450,433
538	11326,176
538,5	11194,205
538,9	11058,633
539,4	10930,748
539,8	10797,462
540,3	10686,633
540,7	10582,205
541,2	10449,29
541,6	10325,89
542,1	10214,233
542,5	10105,719
543	9997,948
543,4	9888,805
543,9	9761,462
544,3	9652,662
544,8	9545,948
545,2	9439,09
545,7	9330,348
546,1	9226,748
546,5	9117,862
547	9032,748
547,4	8926,519
547,9	8835,719
548,3	8740,576
548,8	8645,205
549,2	8541,548
549,7	8450,662
550,1	8350,605
550,6	8272,462
551	8175,862
551,5	8082,662
551,9	7991,319
552,4	7919,833
552,8	7844,49
553,3	7763,862
553,7	7681,976
554,2	7605,805
554,6	7529,976
555,1	7447,49
555,5	7358,319
555,9	7277,748
556,4	7201,748
556,8	7126,719
557,3	7053,605
557,7	6979,49
558,2	6915,033
558,6	6853,862
559,1	6781,662
559,5	6716,69
560	6642,719
560,4	6570,748
560,9	6508,833
561,3	6444,519
561,8	6379,148
562,2	6306,176
562,7	6238,519
563,1	6177,233
563,6	6119,205
564	6060,919
564,4	6004,062
564,9	5941,262
565,3	5888,748
565,8	5844,776
566,2	5785,433
566,7	5736,976
567,1	5680,805
567,6	5621,29
568	5564,719
568,5	5516,148
568,9	5453,976
569,4	5409,376
569,8	5345,948
570,3	5291,605
570,7	5243,405
571,1	5197,519
571,6	5145,605
572	5100,976
572,5	5054,148
572,9	5009,176
573,4	4971,376
573,8	4927,719
574,3	4883,033
574,7	4842,176
575,2	4798,405
575,6	4757,49
576,1	4718,062
576,5	4666,919
576,9	4614,29
577,4	4576,519
577,8	4537,033
578,3	4496,29
578,7	4455,062
579,2	4407,148
579,6	4364,462
580,1	4330,462
580,5	4287,89
581	4243,119
581,4	4201,862
581,9	4165,862
582,3	4142,462
582,7	4110,119
583,2	4074,69
583,6	4037,005
584,1	4004,633
584,5	3968,205
585	3930,69
585,4	3881,748
585,9	3844,719
586,3	3808,033
586,8	3772,119
587,2	3739,976
587,6	3706,233
588,1	3676,748
588,5	3648,262
589	3619,69
589,4	3592,69
589,9	3565,205
590,3	3533,548
590,8	3508,633
591,2	3474,148
591,7	3446,405
592,1	3416,89
592,5	3391,405
593	3368,262
593,4	3341,148
593,9	3313,69
594,3	3292,89
594,8	3272,89
595,2	3245,519
595,7	3218,148
596,1	3191,033
596,6	3167,976
597	3147,976
597,4	3119,405
597,9	3092,976
598,3	3075,576
598,8	3052,519
599,2	3032,462
599,7	3013,662
600,1	2985,976
600,6	2962,976
601	2944,519
601,4	2919,29
601,9	2898,776
602,3	2881,233
602,8	2856,319
603,2	2836,376
603,7	2817,176
604,1	2799,662
604,6	2782,862
605	2763,09
605,4	2739,776
605,9	2718,319
606,3	2698,776
606,8	2676,519
607,2	2655,005
607,7	2632,548
608,1	2610,09
608,6	2588,862
609	2573,376
609,4	2554,319
609,9	2540,862
610,3	2518,719
610,8	2502,976
611,2	2489,519
611,7	2472,176
612,1	2451,748
612,6	2435,462
613	2408,948
613,4	2390,69
613,9	2373,405
614,3	2355,976
614,8	2337,29
615,2	2322,29
615,7	2301,205
616,1	2293,09
616,6	2278,776
617	2253,89
617,4	2234,433
617,9	2218,69
618,3	2201,862
618,8	2188,176
619,2	2166,919
619,7	2150,776
620,1	2146,376
620,5	2127,719
621	2116,062
621,4	2102,119
621,9	2084,062
622,3	2069,09
622,8	2053,119
623,2	2035,405
623,6	2022,662
624,1	2007,405
624,5	1991,205
625	1979,89
625,4	1969,462
625,9	1955,576
626,3	1943,233
626,8	1927,433
627,2	1903,833
627,6	1888,776
628,1	1871,748
628,5	1858,862
629	1843,548
629,4	1821,062
629,9	1802,405
630,3	1790,576
630,7	1775,548
631,2	1767,09
631,6	1748,233
632,1	1734,205
632,5	1725,462
633	1718,348
633,4	1706,748
633,8	1697,49
634,3	1679,119
634,7	1666,776
635,2	1651,548
635,6	1637,633
636,1	1624,09
636,5	1611,805
636,9	1596,176
637,4	1586,919
637,8	1578,976
638,3	1572,09
638,7	1554,405
639,2	1543,976
639,6	1534,376
640	1525,919
640,5	1514,233
640,9	1503,976
641,4	1495,29
641,8	1489,233
642,2	1479,319
642,7	1473,833
643,1	1462,776
643,6	1454,233
644	1443,576
644,5	1435,148
644,9	1426,776
645,3	1419,205
645,8	1406,005
646,2	1391,576
646,7	1376,262
647,1	1359,976
647,6	1348,862
648	1339,176
648,4	1329,062
648,9	1319,748
649,3	1313,49
649,8	1305,519
650,2	1299,205
650,6	1285,805
651,1	1275,576
651,5	1265,205
652	1257,662
652,4	1251,862
652,9	1248,319
653,3	1238,833
653,7	1230,462
654,2	1220,89
654,6	1208,29
655,1	1199,405
655,5	1187,605
655,9	1177,005
656,4	1167,633
656,8	1160,09
657,3	1159,49
657,7	1153,605
658,2	1142,833
658,6	1135,262
659	1130,29
659,5	1127,062
659,9	1122,633
660,4	1107,348
660,8	1098,233
661,2	1089,69
661,7	1083,548
662,1	1072,433
662,6	1062,976
663	1049,662
663,4	1044,462
663,9	1040,433
664,3	1029,376
664,8	1018,233
665,2	1013,062
665,6	1005,433
666,1	999,548
666,5	994,033
667	985,662
667,4	984,348
667,9	975,29
668,3	964,062
668,7	953,605
669,2	941,005
669,6	930,605
670,1	925,49
670,5	918,862
670,9	913,662
671,4	906,348
671,8	902,519
672,3	902,09
672,7	897,09
673,1	892,805
673,6	884,576
674	877,319
674,5	873,348
674,9	870,748
675,3	864,805
675,8	859,09
676,2	842,433
676,7	840,233
677,1	838,633
677,5	835,062
678	827,033
678,4	821,462
678,9	814,69
679,3	815,462
679,7	806,433
680,2	799,119
680,6	787,862
681,1	779,748
681,5	771,49
681,9	766,948
682,4	761,433
682,8	755,348
683,3	749,033
683,7	747,205
684,1	739,49
684,6	733,205
685	724,433
685,5	711,233
685,9	700,062
686,3	696,862
686,8	685,148
687,2	683,29
687,7	677,49
688,1	673,376
688,5	676,176
689	679,805
689,4	671,719
689,9	673,433
690,3	665,576
690,7	666,205
691,2	665,119
691,6	658,776
692	650,548
692,5	641,576
692,9	636,862
693,4	630,748
693,8	627,376
694,2	617,29
694,7	611,776
695,1	606,176
695,6	606,576
696	602,033
696,4	598,405
696,9	588,605
697,3	591,348
697,8	591,462
698,2	586,69
698,6	585,233
699,1	580,519
699,5	580,205
699,9	576,49
700,4	570,833
700,8	563,862
701,3	560,205
701,7	550,348
702,1	544,519
702,6	539,462
703	536,948
703,5	530,062
703,9	529,205
704,3	526,233
704,8	527,062
705,2	523,805
705,6	521,176
706,1	514,89
706,5	511,405
707	507,748
707,4	506,548
707,8	506,576
708,3	502,348
708,7	497,405
709,2	497,319
709,6	498,576
710	491,29
710,5	478,976
710,9	474,005
711,3	471,862
711,8	467,776
712,2	465,062
712,7	454,948
713,1	451,205
713,5	459,433
714	453,862
714,4	451,748
714,8	453,462
715,3	448,633
715,7	445,833
716,2	451,033
716,6	441,69
717	442,148
717,5	435,776
717,9	427,89
718,3	425,719
718,8	423,29
719,2	413,919
719,7	413,805
720,1	406,262
720,5	407,976
721	404,633
721,4	401,576
721,8	399,29
722,3	394,319
722,7	389,119
723,2	385,662
723,6	381,062
724	380,719
724,5	378,09
724,9	376,89
725,3	376,119
725,8	377,433
726,2	373,748
726,7	373,119
727,1	372,89
727,5	372,262
728	362,919
728,4	359,862
728,8	355,633
729,3	353,576
729,7	348,148
730,1	343,376
730,6	337,548
731	339,805
731,5	341,062
731,9	336,205
732,3	335,376
732,8	333,862
733,2	335,29
733,6	332,862
734,1	329,919
734,5	327,119
734,9	322,462
735,4	320,576
735,8	319,776
736,3	310,29
736,7	310,719
737,1	308,319
737,6	304,776
738	305,776
738,4	307,148
738,9	305,176
739,3	309,262
739,7	306,49
740,2	307,29
740,6	305,233
741,1	303,376
741,5	298,976
741,9	296,49
742,4	296,29
742,8	293,805
743,2	290,205
743,7	290,148
744,1	287,576
744,5	287,09
745	283,348
745,4	280,119
745,8	278,233
746,3	277,576
746,7	271,805
747,2	267,348
747,6	262,376
748	264,576
748,5	262,862
748,9	263,005
749,3	263,09
749,8	264,719
750,2	265,719
750,6	264,49
751,1	262,49
751,5	259,033
751,9	256,319
752,4	259,948
752,8	257,062
753,3	257,976
753,7	258,948
754,1	256,805
754,6	253,89
755	254,09
755,4	249,29
755,9	252,548
756,3	253,748
756,7	252,576
757,2	249,805
757,6	247,376
758	242,862
758,5	237,49
758,9	234,576
759,3	230,976
759,8	226,462
760,2	225,433
760,6	232,862
761,1	233,119
761,5	233,148
761,9	225,405
762,4	225,748
762,8	227,919
763,3	226,233
763,7	220,319
764,1	221,148
764,6	221,176
765	226,319
765,4	225,348
765,9	225,262
766,3	224,062
766,7	222,719
767,2	221,005
767,6	219,89
768	215,605
768,5	209,433
768,9	202,148
769,3	201,29
769,8	196,348
770,2	192,919
770,6	191,833
771,1	190,976
771,5	194,062
771,9	197,262
772,4	195,433
772,8	192,662
773,2	193,062
773,7	188,805
774,1	193,976
774,5	190,519
775	189,576
775,4	188,948
775,8	193,662
776,3	192,748
776,7	193,205
777,1	185,576
777,6	181,119
778	182,776
778,4	181,605
778,9	179,348
779,3	176,462
779,7	177,605
780,2	178,976
780,6	185,176
781	181,005
781,5	182,69
781,9	181,719
782,3	182,09
782,8	178,633
783,2	175,833
783,6	172,833
784,1	171,576
784,5	170,176
784,9	169,519
785,4	169,719
785,8	172,348
786,2	173,433
786,7	171,205
787,1	175,805
787,5	171,976
788	169,233
788,4	168,29
788,8	162,633
789,3	162,405
789,7	159,433
790,1	154,148
790,6	156,462
791	155,576
791,4	153,09
791,9	154,69
792,3	153,233
792,7	156,09
793,2	157,833
793,6	155,633
794	156,919
794,5	156,633
794,9	154,605
795,3	154,005
795,8	154,776
796,2	145,148
796,6	147,833
797,1	145,776
797,5	141,519
797,9	146,49
798,4	147,462
798,8	141,633
799,2	150,633
799,7	142,49
800,1	142,319
800,5	144,805
801	140,29
801,4	135,29
801,8	138,148
802,2	131,776
802,7	135,119
803,1	133,862
803,5	133,005
804	129,719
804,4	128,519
804,8	130,119
805,3	131,919
805,7	129,29
806,1	126,148
806,6	127,176
807	129,662
807,4	130,633
807,9	126,205
808,3	123,948
808,7	123,233
809,2	124,605
809,6	127,119
810	126,205
810,4	126,405
810,9	128,49
811,3	131,348
811,7	130,29
812,2	128,233
812,6	123,319
813	121,633
813,5	121,29
813,9	120,348
814,3	114,833
814,8	118,948
815,2	121,176
815,6	119,948
816,1	117,376
816,5	115,148
816,9	114,49
817,3	114,576
817,8	113,376
818,2	110,405
818,6	109,833
819,1	109,405
819,5	106,262
819,9	106,033
820,4	112,519
820,8	106,976
821,2	106,748
821,7	103,862
822,1	101,748
822,5	104,062
822,9	99,319
823,4	93,29
823,8	97,462
824,2	97,119
824,7	95,805
825,1	95,29
825,5	93,09
826	90,805
826,4	88,605
826,8	86,776
827,3	88,348
827,7	89,233
828,1	95,262
828,5	100,805
829	104,748
829,4	100,233
829,8	103,519
830,3	106,148
830,7	106,776
831,1	102,09
831,6	95,405
832	95,005
832,4	97,29
832,8	91,09
833,3	86,633
833,7	81,948
834,1	83,376
834,6	83,776
835	82,233
835,4	82,548
835,8	87,148
836,3	84,576
836,7	89,062
837,1	86,919
837,6	83,062
838	81,262
838,4	80,09
838,9	75,29
839,3	78,576
839,7	79,062
840,1	80,233
840,6	82,89
841	83,719
841,4	83,433
841,9	85,519
842,3	78,862
842,7	73,662
843,1	71,376
843,6	69,176
844	66,69
844,4	70,09
844,9	68,262
845,3	74,205
845,7	77,976
846,2	78,405
846,6	80,348
847	83,462
847,4	81,033
847,9	79,462
848,3	71,69
848,7	70,033
849,2	65,376
849,6	64,433
850	64,09
850,4	62,348
850,9	61,69
851,3	71,605
851,7	69,605
852,2	68,233
852,6	71,462
853	68,433
853,4	70,348
853,9	69,833
854,3	68,948
854,7	73,005
855,2	77,976
855,6	72,348
856	76,348
856,4	74,919
856,9	77,862
857,3	73,805
857,7	75,519
858,2	76,09
858,6	76,462
859	72,405
859,4	72,405
859,9	71,462
860,3	71,262
860,7	68,462
861,1	68,005
861,6	71,148
862	71,233
862,4	67,005
862,9	68,462
863,3	64,833
863,7	63,233
864,1	62,148
864,6	63,062
865	61,376
865,4	65,548
865,9	62,348
866,3	66,833
866,7	62,69
867,1	59,948
867,6	58,976
868	56,49
868,4	54,119
868,8	50,319
869,3	49,519
869,7	53,119
870,1	54,748
870,6	54,519
871	99,519
871,4	103,776
871,8	105,119
872,3	102,062
872,7	97,605
873,1	92,89
873,5	90,576
874	49,205
874,4	44,69
874,8	44,319
875,3	44,662
875,7	48,29
876,1	56,09
876,5	54,976
877	55,49
877,4	57,776
877,8	59,462
878,2	63,805
878,7	62,033
879,1	60,262
879,5	60,719
879,9	54,519
880,4	51,148
880,8	53,49
881,2	51,29
881,7	52,176
882,1	48,376
882,5	46,519
882,9	51,233
883,4	51,005
883,8	48,862
884,2	46,005
884,6	41,89
885,1	41,69
885,5	39,633
885,9	42,376
886,3	41,862
886,8	45,719
887,2	43,233
887,6	50,29
888	52,09
888,5	54,29
888,9	51,548
889,3	50,633
889,8	47,233
890,2	44,405
890,6	41,719
891	41,405
891,5	43,576
891,9	42,405
892,3	46,033
892,7	42,062
893,2	47,062
893,6	43,462
894	44,319
894,4	39,833
894,9	39,376
895,3	36,862
895,7	40,605
896,1	35,09
896,6	38,833
897	39,176
897,4	44,605
897,8	48,176
898,3	50,519
898,7	45,862
899,1	52,576
899,5	52,748
900	52,462
900,4	46,033
900,8	40,433
901,2	39,348
901,7	46,576
902,1	42,662
902,5	41,719
902,9	41,633
903,4	45,919
903,8	47,433
904,2	47,805
904,6	43,662
905,1	46,605
905,5	46,09
905,9	44,405
906,3	41,262
906,8	41,348
907,2	38,719
907,6	41,176
908	39,148
908,5	35,062
908,9	34,805
909,3	36,376
909,7	36,719
910,2	33,233
910,6	29,29
911	28,976
911,4	30,862
911,9	31,833
912,3	34,376
912,7	33,119
913,1	36,519
913,6	39,462
914	42,605
914,4	45,662
914,8	45,576
915,3	39,833
915,7	43,633
916,1	46,976
916,5	42,776
916,9	38,69
917,4	35,176
917,8	33,119
918,2	40,148
918,6	37,033
919,1	33,833
919,5	35,033
919,9	35,976
920,3	39,433
920,8	44,062
921,2	40,319
921,6	41,919
922	39,805
922,5	42,862
922,9	44,319
923,3	44,205
923,7	42,062
924,2	42,576
924,6	40,233
925	44,833
925,4	44,062
925,8	41,262
926,3	37,49
926,7	35,633
927,1	36,49
927,5	40,576
928	38,605
928,4	31,262
928,8	34,633
929,2	36,09
929,7	37,09
930,1	32,319
930,5	25,09
930,9	27,719
931,3	35,49
931,8	33,262
932,2	31,662
932,6	28,519
933	26,548
933,5	26,376
933,9	28,433
934,3	26,548
934,7	27,148
935,2	25,548
935,6	24,033
936	21,062
936,4	25,976
936,8	22,005
937,3	24,548
937,7	23,862
938,1	30,062
938,5	30,862
939	36,376
939,4	32,662
939,8	31,09
940,2	23,805
940,6	24,519
941,1	20,376
941,5	26,519
941,9	31,348
942,3	34,319
942,8	34,376
943,2	32,833
943,6	29,89
944	31,576
944,4	27,148
944,9	21,462
945,3	21,205
945,7	22,548
946,1	29,633
946,6	28,376
947	27,89
947,4	26,748
947,8	31,69
948,2	35,49
948,7	30,719
949,1	30,519
949,5	29,776
949,9	30,319
950,3	28,062
950,8	24,89
951,2	19,462
951,6	27,319
952	23,319
952,5	26,09
952,9	22,148
953,3	26,205
953,7	25,948
954,1	27,662
954,6	23,49
955	26,119
955,4	28,148
955,8	32,062
956,2	30,062
956,7	33,633
957,1	32,005
957,5	34,09
957,9	32,89
958,3	32,69
958,8	32,89
959,2	33,948
959,6	36,49
960	37,29
960,5	35,119
960,9	39,805
961,3	40,119
961,7	38,119
962,1	36,833
962,6	33,69
963	38,776
963,4	40,919
963,8	35,519
964,2	33,033
964,7	33,862
965,1	40,033
965,5	39,776
965,9	34,262
966,3	36,005
966,8	37,319
967,2	38,833
967,6	40,005
968	37,062
968,4	38,119
968,9	38,033
969,3	31,576
969,7	29,205
970,1	28,833
970,5	29,348
971	30,633
971,4	26,348
971,8	23,776
972,2	25,119
972,6	28,548
973,1	27,49
973,5	25,948
973,9	19,662
974,3	21,405
974,7	19,69
975,2	24,405
975,6	25,119
976	25,805
976,4	24,805
976,8	29,233
977,3	28,29
977,7	32,49
978,1	31,062
978,5	32,633
978,9	34,69
979,4	37,376
979,8	37,148
980,2	38,862
980,6	43,033
981	39,09
981,5	33,319
981,9	33,262
982,3	32,605
982,7	29,662
983,1	28,462
983,6	24,376
984	25,119
984,4	24,919
984,8	20,776
985,2	20,176
985,6	22,605
986,1	17,033
986,5	19,176
986,9	16,376
987,3	17,119
987,7	20,776
988,2	15,89
988,6	15,89
989	23,548
989,4	17,605
989,8	23,833
990,3	23,205
990,7	21,89
991,1	21,119
991,5	20,919
991,9	19,148
992,3	22,348
992,8	16,919
993,2	19,005
993,6	19,605
994	27,805
994,4	31,633
994,9	28,833
995,3	32,833
995,7	34,233
996,1	34,748
996,5	31,148
996,9	32,633
997,4	26,548
997,8	26,89
998,2	25,633
998,6	28,519
999	27,548
999,5	28,405
999,9	21,119
1000,3	22,719
1000,7	27,662
1001,1	25,89
1001,5	25,262
1002	28,976
1002,4	29,576
1002,8	33,89
1003,2	33,433
1003,6	32,262
1004	34,976
1004,5	33,348
1004,9	31,662
1005,3	30,033
1005,7	30,148
1006,1	27,119
1006,6	25,233
1007	22,262
1007,4	19,376
1007,8	21,519
1008,2	28,005
1008,6	27,005
1009,1	29,29
1009,5	30,09
1009,9	29,09
1010,3	34,662
1010,7	32,976
1011,1	29,233
1011,6	29,49
1012	30,69
1012,4	31,519
1012,8	29,605
1013,2	23,862
1013,6	22,662
1014,1	21,776
1014,5	21,862
1014,9	22,09
1015,3	20,69
1015,7	22,633
1016,1	27,548
1016,6	25,862
1017	28,948
1017,4	25,776
1017,8	28,433
1018,2	25,662
1018,6	24,748
1019,1	26,148
1019,5	24,719
1019,9	23,919
1020,3	24,805
1020,7	22,976
1021,1	20,233
1021,6	23,033
1022	19,233
1022,4	21,433
1022,8	16,948
1023,2	16,433
1023,6	13,49
1024,1	20,69
1024,5	22,719
1024,9	23,519
1025,3	23,833
1025,7	29,605
1026,1	23,948
1026,6	31,005
1027	29,805
1027,4	27,205
1027,8	26,433
1028,2	28,69
1028,6	25,233
1029	31,005
1029,5	25,148
1029,9	26,49
1030,3	25,29
1030,7	29,976
1031,1	29,005
1031,5	32,919
1032	35,405
1032,4	39,662
1032,8	38,033
1033,2	34,29
1033,6	27,148
1034	22,233
1034,4	19,205
1034,9	21,09
1035,3	23,49
1035,7	19,319
1036,1	27,548
1036,5	30,748
1036,9	35,233
1037,4	36,948
1037,8	33,062
1038,2	29,948
1038,6	31,29
1039	28,748
1039,4	33,548
1039,8	39,148
1040,3	35,69
1040,7	39,519
1041,1	31,69
1041,5	36,719
1041,9	38,262
1042,3	30,548
1042,7	21,633
1043,2	26,919
1043,6	26,233
1044	34,605
1044,4	37,776
1044,8	35,119
1045,2	38,405
1045,6	42,176
1046,1	44,005
1046,5	37,69
1046,9	35,919
1047,3	27,948
1047,7	28,833
1048,1	30,433
1048,5	28,605
1049	26,919
1049,4	29,205
1049,8	27,119
1050,2	27,976
1050,6	28,462
1051	30,176
1051,4	28,49
1051,9	24,062
1052,3	24,805
1052,7	28,519
1053,1	28,405
1053,5	23,033
1053,9	20,948
1054,3	16,405
1054,8	18,319
1055,2	20,69
1055,6	15,919
1056	15,548
1056,4	19,976
1056,8	20,09
1057,2	23,062
1057,6	24,033
1058,1	28,948
1058,5	30,005
1058,9	30,09
1059,3	29,719
1059,7	25,862
1060,1	29,605
1060,5	27,176
1061	20,262
1061,4	22,548
1061,8	23,605
1062,2	26,148
1062,6	29,29
1063	29,519
1063,4	29,748
1063,8	26,176
1064,3	32,462
1064,7	36,062
1065,1	32,89
1065,5	35,005
1065,9	38,462
1066,3	39,005
1066,7	47,262
1067,1	36,205
1067,6	38,776
1068	42,176
1068,4	40,576
1068,8	35,605
1069,2	36,148
1069,6	27,348
1070	34,176
1070,4	29,576
1070,9	27,948
1071,3	27,605
1071,7	27,348
1072,1	27,519
1072,5	32,919
1072,9	27,833
1073,3	23,948
1073,7	19,862
1074,2	21,69
1074,6	24,433
1075	25,805
1075,4	28,748
1075,8	27,519
1076,2	34,405
1076,6	35,748
1077	37,805
1077,5	37,805
1077,9	31,548
1078,3	25,633
1078,7	29,548
1079,1	27,576
1079,5	29,005
1079,9	27,29
1080,3	27,776
1080,7	35,862
1081,2	36,576
1081,6	34,662
1082	34,805
1082,4	36,262
1082,8	36,262
1083,2	28,49
1083,6	25,148
1084	24,519
1084,5	26,69
1084,9	22,605
1085,3	19,719
1085,7	18,319
1086,1	24,205
1086,5	23,319
1086,9	28,005
1087,3	26,119
1087,7	31,605
1088,2	35,09
1088,6	36,176
1089	36,405
1089,4	38,262
1089,8	36,976
1090,2	35,09
1090,6	30,433
1091	25,033
1091,4	22,205
1091,9	19,805
1092,3	24,29
1092,7	22,49
1093,1	24,49
1093,5	25,062
1093,9	27,89
1094,3	27,005
1094,7	27,262
1095,1	20,69
1095,5	22,119
1096	27,005
1096,4	30,662
1096,8	32,062
1097,2	30,576
1097,6	33,005
1098	32,519
1098,4	32,148
1098,8	28,319
1099,2	23,148
1099,6	24,89
1100,1	26,719
1100,5	24,09
1100,9	22,633
1101,3	21,033
1101,7	18,89
1102,1	22,319
1102,5	17,09
1102,9	15,348
1103,3	16,519
1103,7	18,919
1104,2	17,09
1104,6	17,233
1105	15,033
1105,4	16,919
1105,8	15,948
1106,2	12,662
1106,6	9,119
1107	8,119
1107,4	6,567
1107,8	4,033
1108,3	0,183
