Data from Subt2_00025.txt Node
Date: Mon Aug 28 13:10:56 MSK 2023
User: vat
Spectrometer: MAYP114033
Trigger mode: 0
Integration Time (sec): 1,000000E0
Scans to average: 5
Electric dark correction enabled: true
Nonlinearity correction enabled: false
Boxcar width: 3
XAxis mode: Wavelengths
Number of Pixels in Spectrum: 2068
>>>>>Begin Spectral Data<<<<<
199,4	0,683
199,9	1,553
200,4	-1,033
200,8	0,519
201,3	0,519
201,8	0,89
202,2	1,776
202,7	0,462
203,2	2,09
203,6	5,49
204,1	7,29
204,6	8,262
205	8,633
205,5	10,833
206	14,29
206,4	12,605
206,9	14,033
207,4	13,119
207,8	12,462
208,3	14,662
208,8	18,176
209,2	18,433
209,7	16,233
210,2	7,462
210,6	7,89
211,1	9,862
211,5	10,605
212	7,519
212,5	7,662
212,9	11,148
213,4	19,433
213,9	17,89
214,3	16,89
214,8	16,005
215,3	9,833
215,7	11,519
216,2	12,548
216,7	13,205
217,1	14,176
217,6	11,376
218,1	7,605
218,5	10,662
219	8,69
219,5	7,805
219,9	8,205
220,4	6,976
220,9	8,719
221,3	9,976
221,8	14,719
222,3	16,119
222,7	15,548
223,2	16,805
223,6	18,49
224,1	22,176
224,6	24,405
225	18,29
225,5	14,976
226	15,062
226,4	12,148
226,9	11,719
227,4	10,833
227,8	11,348
228,3	13,833
228,8	15,062
229,2	19,233
229,7	14,862
230,2	14,89
230,6	15,976
231,1	11,176
231,5	12,09
232	14,119
232,5	10,548
232,9	12,548
233,4	13,548
233,9	10,233
234,3	13,776
234,8	13,662
235,3	7,633
235,7	4,776
236,2	1,605
236,7	1,776
237,1	6,405
237,6	4,976
238,1	3,062
238,5	10,69
239	10,919
239,4	14,776
239,9	12,033
240,4	7,29
240,8	10,205
241,3	15,062
241,8	9,948
242,2	12,433
242,7	18,633
243,2	19,748
243,6	26,262
244,1	21,69
244,6	17,319
245	19,805
245,5	21,09
245,9	10,719
246,4	10,09
246,9	8,662
247,3	9,29
247,8	7,09
248,3	8,319
248,7	7,919
249,2	13,948
249,7	11,919
250,1	5,09
250,6	8,005
251	6,833
251,5	5,919
252	1,662
252,4	3,176
252,9	3,976
253,4	10,719
253,8	12,748
254,3	16,176
254,8	15,948
255,2	18,519
255,7	16,976
256,1	17,976
256,6	15,976
257,1	13,548
257,5	13,49
258	11,89
258,5	11,405
258,9	11,176
259,4	11,89
259,9	10,805
260,3	8,776
260,8	9,748
261,2	11,29
261,7	13,49
262,2	13,148
262,6	11,862
263,1	11,862
263,6	16,262
264	13,862
264,5	12,748
264,9	13,776
265,4	12,405
265,9	14,805
266,3	14,69
266,8	14,09
267,3	13,29
267,7	15,348
268,2	13,005
268,7	17,148
269,1	15,862
269,6	18,119
270	16,462
270,5	21,605
271	20,605
271,4	23,748
271,9	20,919
272,4	23,976
272,8	20,948
273,3	21,69
273,7	14,833
274,2	17,319
274,7	10,576
275,1	13,69
275,6	12,233
276,1	12,348
276,5	8,519
277	13,948
277,4	8,948
277,9	9,233
278,4	1,805
278,8	1,605
279,3	1,405
279,8	1,69
280,2	-0,595
280,7	-0,081
281,1	5,062
281,6	12,233
282,1	9,405
282,5	9,805
283	8,433
283,4	9,348
283,9	12,919
284,4	9,576
284,8	8,376
285,3	10,519
285,8	13,176
286,2	14,519
286,7	16,805
287,1	14,348
287,6	15,662
288,1	19,09
288,5	15,376
289	12,662
289,5	17,405
289,9	22,033
290,4	22,062
290,8	23,919
291,3	23,319
291,8	28,833
292,2	29,062
292,7	23,633
293,1	18,376
293,6	13,862
294,1	14,919
294,5	8,548
295	5,576
295,5	3,233
295,9	4,919
296,4	5,976
296,8	10,405
297,3	6,576
297,8	3,262
298,2	2,519
298,7	3,805
299,1	3,519
299,6	2,49
300,1	5,119
300,5	5,605
301	12,576
301,5	12,89
301,9	13,633
302,4	12,69
302,8	9,919
303,3	5,148
303,8	4,976
304,2	-0,738
304,7	2,033
305,1	2,233
305,6	7,348
306,1	6,233
306,5	10,205
307	12,033
307,4	15,833
307,9	12,405
308,4	12,805
308,8	12,262
309,3	15,89
309,8	15,519
310,2	13,776
310,7	16,148
311,1	15,519
311,6	14,662
312,1	14,09
312,5	11,09
313	8,262
313,4	10,862
313,9	7,376
314,4	11,862
314,8	11,519
315,3	12,89
315,7	15,662
316,2	19,205
316,7	14,09
317,1	13,548
317,6	13,576
318	14,805
318,5	12,919
319	15,833
319,4	12,662
319,9	14,148
320,3	15,919
320,8	17,29
321,3	13,748
321,7	12,348
322,2	7,148
322,6	3,262
323,1	4,519
323,6	1,233
324	-2,51
324,5	-1,795
324,9	0,462
325,4	4,262
325,9	9,062
326,3	11,205
326,8	10,948
327,2	12,69
327,7	14,833
328,2	17,776
328,6	16,233
329,1	16,462
329,5	13,462
330	17,005
330,5	15,005
330,9	14,348
331,4	10,348
331,8	10,348
332,3	12,176
332,8	12,69
333,2	14,919
333,7	13,69
334,1	16,005
334,6	12,319
335,1	15,748
335,5	16,633
336	15,519
336,4	15,005
336,9	15,862
337,4	13,776
337,8	18,205
338,3	14,376
338,7	11,233
339,2	14,033
339,7	14,89
340,1	14,519
340,6	11,462
341	9,433
341,5	11,176
342	13,862
342,4	13,548
342,9	12,005
343,3	11,776
343,8	11,548
344,2	16,005
344,7	17,148
345,2	15,348
345,6	16,519
346,1	14,176
346,5	13,376
347	14,148
347,5	6,748
347,9	3,948
348,4	3,833
348,8	-0,481
349,3	3,833
349,8	4,119
350,2	4,776
350,7	9,462
351,1	8,062
351,6	10,176
352	12,69
352,5	12,062
353	13,09
353,4	17,348
353,9	16,348
354,3	19,748
354,8	18,205
355,3	19,69
355,7	16,548
356,2	17,233
356,6	14,919
357,1	18,948
357,5	21,833
358	22,062
358,5	22,976
358,9	28,862
359,4	33,405
359,8	43,49
360,3	44,805
360,8	46,833
361,2	53,062
361,7	57,148
362,1	58,119
362,6	64,776
363	66,148
363,5	74,776
364	83,062
364,4	92,719
364,9	104,719
365,3	117,948
365,8	128,719
366,3	135,319
366,7	145,005
367,2	152,405
367,6	159,376
368,1	165,176
368,5	168,89
369	168,462
369,5	172,49
369,9	174,833
370,4	180,033
370,8	177,976
371,3	171,033
371,7	171,49
372,2	172,405
372,7	170,89
373,1	165,89
373,6	155,49
374	151,176
374,5	148,976
374,9	141,805
375,4	129,462
375,9	118,805
376,3	109,205
376,8	104,405
377,2	96,376
377,7	93,09
378,2	87,376
378,6	84,176
379,1	78,376
379,5	71,662
380	65,519
380,4	61,89
380,9	55,09
381,4	49,233
381,8	48,09
382,3	50,462
382,7	53,862
383,2	52,405
383,6	49,233
384,1	46,919
384,6	49,376
385	49,29
385,5	45,033
385,9	39,462
386,4	36,09
386,8	38,005
387,3	36,148
387,7	34,233
388,2	31,033
388,7	30,005
389,1	23,748
389,6	26,833
390	25,148
390,5	26,462
390,9	21,89
391,4	17,433
391,9	20,29
392,3	27,49
392,8	23,233
393,2	22,776
393,7	20,176
394,1	20,433
394,6	22,69
395,1	22,433
395,5	18,633
396	17,69
396,4	13,29
396,9	12,662
397,3	12,89
397,8	10,633
398,2	8,69
398,7	9,948
399,2	12,605
399,6	16,69
400,1	17,633
400,5	21,262
401	29,462
401,4	30,319
401,9	32,376
402,4	34,89
402,8	32,348
403,3	33,719
403,7	30,605
404,2	24,948
404,6	23,662
405,1	22,348
405,5	16,776
406	17,29
406,5	16,69
406,9	16,605
407,4	17,89
407,8	20,948
408,3	19,462
408,7	21,919
409,2	20,462
409,6	22,29
410,1	23,176
410,6	25,776
411	22,776
411,5	28,062
411,9	31,89
412,4	37,633
412,8	36,119
413,3	37,976
413,7	40,29
414,2	43,262
414,7	40,319
415,1	39,119
415,6	38,776
416	42,062
416,5	44,948
416,9	44,633
417,4	46,233
417,8	47,833
418,3	48,148
418,8	54,262
419,2	54,605
419,7	57,519
420,1	58,233
420,6	56,662
421	64,319
421,5	67,748
421,9	70,376
422,4	81,348
422,8	83,033
423,3	89,348
423,8	94,319
424,2	95,519
424,7	100,119
425,1	99,033
425,6	95,662
426	96,69
426,5	98,29
426,9	109,576
427,4	111,262
427,9	116,005
428,3	120,29
428,8	128,805
429,2	134,119
429,7	139,09
430,1	140,262
430,6	151,862
431	156,89
431,5	164,49
431,9	167,605
432,4	178,119
432,8	187,576
433,3	198,89
433,8	206,262
434,2	215,09
434,7	223,29
435,1	238,976
435,6	247,662
436	260,233
436,5	268,29
436,9	277,89
437,4	293,748
437,8	307,69
438,3	315,605
438,8	329,833
439,2	342,376
439,7	351,433
440,1	361,748
440,6	376,405
441	390,805
441,5	406,776
441,9	420,805
442,4	435,433
442,8	458,576
443,3	481,633
443,7	495,49
444,2	510,548
444,7	531,09
445,1	547,833
445,6	569,519
446	588,433
446,5	603,548
446,9	621,462
447,4	649,576
447,8	667,462
448,3	691,176
448,7	702,662
449,2	716,662
449,6	738,319
450,1	763,69
450,6	778,576
451	798,776
451,5	824,548
451,9	855,319
452,4	880,805
452,8	906,748
453,3	922,262
453,7	945,09
454,2	969,09
454,6	984,605
455,1	1005,605
455,5	1025,005
456	1047,205
456,4	1073,976
456,9	1097,862
457,3	1124,576
457,8	1150,576
458,3	1175,805
458,7	1200,205
459,2	1220,148
459,6	1241,433
460,1	1266,433
460,5	1284,462
461	1309,633
461,4	1327,748
461,9	1352,948
462,3	1374,833
462,8	1397,89
463,2	1418,062
463,7	1437,948
464,1	1450,376
464,6	1470,719
465	1490,319
465,5	1509,119
466	1534,033
466,4	1548,176
466,9	1572,976
467,3	1597,29
467,8	1621,433
468,2	1640,405
468,7	1660,576
469,1	1677,033
469,6	1701,148
470	1716,148
470,5	1730,69
470,9	1741,805
471,4	1761,776
471,8	1768,548
472,3	1779,376
472,7	1791,176
473,2	1803,948
473,6	1820,605
474,1	1837,69
474,5	1849,29
475	1865,69
475,4	1877,462
475,9	1890,348
476,4	1899,919
476,8	1900,548
477,3	1905,148
477,7	1910,49
478,2	1922,262
478,6	1927,119
479,1	1925,948
479,5	1930,719
480	1943,69
480,4	1948,748
480,9	1953,09
481,3	1956,405
481,8	1965,519
482,2	1969,862
482,7	1975,29
483,1	1978,148
483,6	1977,033
484	1978,605
484,5	1980,976
484,9	1974,148
485,4	1976,119
485,8	1971,49
486,3	1968,09
486,7	1970,233
487,2	1966,805
487,6	1961,548
488,1	1959,719
488,5	1959,948
489	1959,833
489,4	1950,862
489,9	1942,405
490,4	1935,89
490,8	1935,148
491,3	1933,033
491,7	1924,176
492,2	1914,49
492,6	1905,033
493,1	1896,776
493,5	1887,69
494	1872,376
494,4	1861,033
494,9	1851,062
495,3	1842,233
495,8	1841,576
496,2	1828,09
496,7	1819,548
497,1	1813,519
497,6	1802,89
498	1789,719
498,5	1777,833
498,9	1770,662
499,4	1768,062
499,8	1756,605
500,3	1750,176
500,7	1741,462
501,2	1734,205
501,6	1722,862
502,1	1704,748
502,5	1692,148
503	1680,348
503,4	1661,862
503,9	1654,605
504,3	1647,633
504,8	1634,062
505,2	1626,776
505,7	1609,662
506,1	1600,09
506,6	1585,433
507	1563,09
507,5	1545,776
507,9	1534,433
508,4	1517,719
508,8	1510,176
509,3	1497,805
509,7	1488,719
510,2	1479,976
510,6	1466,862
511,1	1455,433
511,5	1447,605
512	1428,548
512,4	1414,633
512,9	1397,462
513,3	1385,776
513,8	1373,319
514,2	1363,948
514,7	1346,005
515,1	1343,005
515,6	1330,976
516	1318,005
516,5	1303,033
516,9	1289,748
517,4	1272,948
517,8	1260,919
518,3	1242,748
518,7	1224,005
519,2	1214,776
519,6	1199,319
520,1	1186,005
520,5	1166,319
521	1152,776
521,4	1138,748
521,9	1129,319
522,3	1117,548
522,8	1110,862
523,2	1099,262
523,7	1092,719
524,1	1082,376
524,6	1072,776
525	1062,805
525,5	1046,119
525,9	1030,49
526,4	1017,433
526,8	1008,662
527,3	996,062
527,7	984,119
528,2	971,033
528,6	960,062
529,1	946,376
529,5	931,376
530	918,119
530,4	901,919
530,9	890,148
531,3	882,49
531,8	873,376
532,2	866,348
532,6	858,862
533,1	843,805
533,5	840,462
534	832,833
534,4	818,862
534,9	808,805
535,3	801,405
535,8	793,862
536,2	792,976
536,7	781,805
537,1	768,376
537,6	756,49
538	753,29
538,5	741,633
538,9	727,605
539,4	714,49
539,8	705,119
540,3	698,205
540,7	697,662
541,2	687,69
541,6	679,633
542,1	674,376
542,5	670,405
543	664,262
543,4	655,319
543,9	643,348
544,3	627,519
544,8	621,662
545,2	618,976
545,7	611,862
546,1	603,033
546,5	597,205
547	590,805
547,4	584,862
547,9	580,776
548,3	570,233
548,8	560,605
549,2	554,062
549,7	547,176
550,1	537,148
550,6	537,233
551	524,49
551,5	516,348
551,9	512,719
552,4	504,576
552,8	502,033
553,3	499,348
553,7	489,948
554,2	487,548
554,6	482,948
555,1	474,748
555,5	472,748
555,9	466,119
556,4	461,633
556,8	457,748
557,3	450,062
557,7	448,148
558,2	442,49
558,6	437,233
559,1	434,262
559,5	426,376
560	425,548
560,4	420,233
560,9	417,919
561,3	412,662
561,8	404,662
562,2	394,919
562,7	388,49
563,1	382,205
563,6	378,748
564	366,833
564,4	366,805
564,9	361,233
565,3	354,776
565,8	353,548
566,2	341,662
566,7	339,033
567,1	335,462
567,6	328,205
568	327,148
568,5	323,348
568,9	320,433
569,4	320,548
569,8	315,205
570,3	313,433
570,7	310,89
571,1	306,462
571,6	305,69
572	303,576
572,5	300,89
572,9	299,976
573,4	298,062
573,8	293,29
574,3	288,319
574,7	287,033
575,2	286,376
575,6	286,605
576,1	283,262
576,5	279,548
576,9	274,062
577,4	279,805
577,8	270,662
578,3	262,062
578,7	257,29
579,2	254,919
579,6	247,49
580,1	249,233
580,5	236,69
581	239,033
581,4	238,948
581,9	232,262
582,3	229,662
582,7	230,319
583,2	225,176
583,6	226,29
584,1	227,405
584,5	223,548
585	225,119
585,4	219,748
585,9	216,776
586,3	216,748
586,8	212,976
587,2	210,576
587,6	205,948
588,1	207,605
588,5	204,148
589	200,319
589,4	195,919
589,9	193,976
590,3	189,033
590,8	190,776
591,2	182,548
591,7	180,205
592,1	179,748
592,5	176,405
593	176,89
593,4	170,919
593,9	167,433
594,3	167,005
594,8	169,433
595,2	168,176
595,7	166,033
596,1	165,805
596,6	163,719
597	163,576
597,4	162,319
597,9	158,205
598,3	158,833
598,8	161,376
599,2	156,433
599,7	162,376
600,1	162,862
600,6	161,29
601	162,176
601,4	158,205
601,9	154,976
602,3	157,462
602,8	152,462
603,2	148,548
603,7	145,862
604,1	143,119
604,6	144,062
605	144,233
605,4	133,519
605,9	129,919
606,3	126,633
606,8	125,262
607,2	126,548
607,7	124,062
608,1	120,662
608,6	125,062
609	126,662
609,4	128,89
609,9	133,548
610,3	130,69
610,8	134,09
611,2	135,862
611,7	137,119
612,1	137,748
612,6	130,919
613	121,605
613,4	118,376
613,9	113,348
614,3	112,405
614,8	107,748
615,2	107,062
615,7	107,605
616,1	112,605
616,6	113,976
617	113,776
617,4	108,576
617,9	106,605
618,3	104,148
618,8	107,605
619,2	103,976
619,7	100,519
620,1	101,119
620,5	99,89
621	103,49
621,4	103,148
621,9	94,805
622,3	97,519
622,8	99,033
623,2	98,148
623,6	101,833
624,1	101,748
624,5	99,833
625	101,633
625,4	99,205
625,9	98,205
626,3	97,719
626,8	90,833
627,2	85,49
627,6	84,633
628,1	87,176
628,5	82,376
629	79,776
629,4	76,69
629,9	75,948
630,3	76,348
630,7	75,062
631,2	75,148
631,6	75,776
632,1	75,462
632,5	79,433
633	84,776
633,4	85,262
633,8	85,233
634,3	81,948
634,7	83,005
635,2	87,262
635,6	81,005
636,1	76,033
636,5	75,462
636,9	74,605
637,4	77,833
637,8	79,205
638,3	78,433
638,7	79,09
639,2	79,548
639,6	79,633
640	79,919
640,5	80,833
640,9	83,548
641,4	81,062
641,8	80,033
642,2	82,433
642,7	80,748
643,1	82,576
643,6	78,833
644	78,176
644,5	79,948
644,9	79,833
645,3	81,49
645,8	82,49
646,2	79,805
646,7	76,148
647,1	70,89
647,6	67,69
648	69,548
648,4	67,776
648,9	65,09
649,3	65,376
649,8	70,176
650,2	66,205
650,6	67,576
651,1	64,662
651,5	61,319
652	68,119
652,4	65,69
652,9	64,29
653,3	66,005
653,7	61,69
654,2	63,376
654,6	64,119
655,1	57,462
655,5	58,29
655,9	54,948
656,4	55,09
656,8	56,262
657,3	58,29
657,7	56,576
658,2	58,976
658,6	57,462
659	60,719
659,5	63,119
659,9	66,062
660,4	64,576
660,8	63,519
661,2	59,376
661,7	58,976
662,1	56,005
662,6	55,862
663	50,005
663,4	48,633
663,9	51,49
664,3	50,319
664,8	47,862
665,2	49,262
665,6	46,176
666,1	49,862
666,5	47,462
667	43,348
667,4	47,748
667,9	47,29
668,3	47,405
668,7	47,462
669,2	42,348
669,6	41,948
670,1	43,319
670,5	43,919
670,9	49,748
671,4	42,376
671,8	45,69
672,3	47,89
672,7	48,605
673,1	49,633
673,6	47,233
674	43,633
674,5	52,119
674,9	47,376
675,3	45,833
675,8	48,319
676,2	44,833
676,7	43,348
677,1	43,833
677,5	42,205
678	44,576
678,4	49,176
678,9	48,719
679,3	55,09
679,7	55,719
680,2	57,348
680,6	54,948
681,1	56,033
681,5	56,348
681,9	54,262
682,4	55,29
682,8	54,405
683,3	53,633
683,7	53,833
684,1	47,405
684,6	46,233
685	40,919
685,5	30,348
685,9	28,89
686,3	28,176
686,8	30,262
687,2	39,462
687,7	37,319
688,1	43,148
688,5	45,605
689	51,29
689,4	44,976
689,9	42,776
690,3	36,176
690,7	38,29
691,2	39,176
691,6	39,89
692	37,262
692,5	40,148
692,9	42,148
693,4	43,319
693,8	42,29
694,2	40,348
694,7	37,233
695,1	39,948
695,6	45,576
696	43,433
696,4	41,405
696,9	37,348
697,3	37,833
697,8	46,833
698,2	41,462
698,6	35,062
699,1	36,433
699,5	38,262
699,9	36,833
700,4	34,69
700,8	31,433
701,3	33,005
701,7	33,176
702,1	32,09
702,6	28,605
703	32,633
703,5	31,719
703,9	29,233
704,3	28,519
704,8	29,319
705,2	28,433
705,6	31,148
706,1	27,09
706,5	32,005
707	34,462
707,4	36,29
707,8	41,09
708,3	42,633
708,7	40,948
709,2	44,805
709,6	42,633
710	38,748
710,5	40,262
710,9	33,548
711,3	30,005
711,8	29,119
712,2	30,405
712,7	27,662
713,1	29,805
713,5	27,033
714	27,233
714,4	28,948
714,8	32,862
715,3	38,376
715,7	38,119
716,2	40,462
716,6	42,748
717	45,919
717,5	45,976
717,9	40,262
718,3	35,376
718,8	36,09
719,2	34,719
719,7	33,319
720,1	33,233
720,5	33,633
721	39,062
721,4	38,519
721,8	41,976
722,3	45,233
722,7	41,462
723,2	41,433
723,6	42,29
724	40,919
724,5	40,233
724,9	36,49
725,3	28,119
725,8	27,719
726,2	29,29
726,7	28,919
727,1	25,433
727,5	22,805
728	19,319
728,4	22,605
728,8	23,605
729,3	20,748
729,7	19,033
730,1	23,862
730,6	24,062
731	26,433
731,5	30,776
731,9	32,919
732,3	34,862
732,8	33,919
733,2	35,519
733,6	35,833
734,1	36,205
734,5	33,919
734,9	26,576
735,4	23,205
735,8	24,062
736,3	15,748
736,7	16,833
737,1	20,09
737,6	17,633
738	25,576
738,4	28,862
738,9	29,833
739,3	39,576
739,7	39,776
740,2	38,033
740,6	41,148
741,1	36,348
741,5	32,948
741,9	33,89
742,4	33,605
742,8	33,605
743,2	30,005
743,7	23,519
744,1	25,662
744,5	28,29
745	26,605
745,4	23,09
745,8	22,948
746,3	23,976
746,7	20,776
747,2	17,205
747,6	13,005
748	16,405
748,5	16,033
748,9	12,605
749,3	13,662
749,8	21,262
750,2	22,805
750,6	21,976
751,1	19,976
751,5	20,976
751,9	24,062
752,4	30,29
752,8	30,348
753,3	30,348
753,7	34,719
754,1	31,633
754,6	26,833
755	28,662
755,4	26,262
755,9	25,09
756,3	28,376
756,7	26,976
757,2	25,462
757,6	30,919
758	28,148
758,5	23,662
758,9	23,176
759,3	25,148
759,8	23,862
760,2	28,405
760,6	28,348
761,1	29,833
761,5	32,262
761,9	30,719
762,4	26,176
762,8	29,576
763,3	27,948
763,7	26,776
764,1	22,49
764,6	23,29
765	27,719
765,4	30,29
765,9	26,233
766,3	25,09
766,7	24,719
767,2	29,09
767,6	28,719
768	23,89
768,5	18,748
768,9	17,862
769,3	22,862
769,8	16,09
770,2	16,376
770,6	16,348
771,1	16,576
771,5	19,319
771,9	21,033
772,4	18,09
772,8	22,462
773,2	20,576
773,7	18,519
774,1	24,119
774,5	24,005
775	26,462
775,4	24,548
775,8	26,633
776,3	27,262
776,7	28,805
777,1	26,519
777,6	24,062
778	21,376
778,4	20,976
778,9	19,205
779,3	18,748
779,7	17,176
780,2	18,833
780,6	25,062
781	27,89
781,5	25,976
781,9	25,748
782,3	28,919
782,8	30,976
783,2	27,148
783,6	25,776
784,1	23,548
784,5	26,69
784,9	25,748
785,4	23,205
785,8	14,633
786,2	15,005
786,7	13,119
787,1	17,519
787,5	14,205
788	13,69
788,4	16,976
788,8	18,605
789,3	17,862
789,7	16,433
790,1	14,29
790,6	11,605
791	13,605
791,4	11,519
791,9	13,462
792,3	18,576
792,7	24,062
793,2	26,462
793,6	29,805
794	30,49
794,5	26,633
794,9	27,433
795,3	28,548
795,8	25,748
796,2	15,976
796,6	18,033
797,1	20,519
797,5	21,805
797,9	22,605
798,4	16,605
798,8	14,348
799,2	21,576
799,7	21,662
800,1	19,919
800,5	23,205
801	26,062
801,4	25,69
801,8	25,776
802,2	22,09
802,7	21,348
803,1	21,976
803,5	18,519
804	13,433
804,4	12,948
804,8	17,69
805,3	18,519
805,7	18,205
806,1	13,433
806,6	15,919
807	20,119
807,4	18,462
807,9	12,462
808,3	12,833
808,7	14,033
809,2	15,119
809,6	12,805
810	13,462
810,4	19,748
810,9	22,433
811,3	23,005
811,7	20,033
812,2	20,262
812,6	18,405
813	21,576
813,5	17,348
813,9	15,433
814,3	15,976
814,8	16,005
815,2	17,033
815,6	18,033
816,1	14,948
816,5	16,548
816,9	16,805
817,3	13,805
817,8	19,519
818,2	15,119
818,6	18,062
819,1	12,662
819,5	12,605
819,9	14,89
820,4	23,319
820,8	18,776
821,2	21,948
821,7	16,862
822,1	18,405
822,5	22,062
822,9	20,776
823,4	13,176
823,8	14,29
824,2	14,033
824,7	14,833
825,1	12,119
825,5	7,433
826	2,09
826,4	6,49
826,8	4,376
827,3	6,548
827,7	10,633
828,1	17,605
828,5	23,319
829	26,948
829,4	23,433
829,8	27,519
830,3	27,09
830,7	27,148
831,1	24,319
831,6	21,748
832	27,205
832,4	29,862
832,8	28,205
833,3	27,205
833,7	21,348
834,1	21,919
834,6	19,833
835	17,176
835,4	14,09
835,8	10,719
836,3	12,319
836,7	16,49
837,1	17,919
837,6	14,776
838	15,348
838,4	17,49
838,9	18,948
839,3	18,433
839,7	18,405
840,1	22,69
840,6	25,748
841	16,605
841,4	17,176
841,9	18,662
842,3	16,976
842,7	12,605
843,1	6,119
843,6	3,776
844	11,062
844,4	12,033
844,9	11,748
845,3	11,69
845,7	10,919
846,2	15,233
846,6	19,576
847	20,09
847,4	21,262
847,9	20,748
848,3	18,033
848,7	22,29
849,2	12,719
849,6	8,948
850	7,719
850,4	2,319
850,9	3,376
851,3	7,748
851,7	5,519
852,2	9,462
852,6	12,605
853	13,462
853,4	14,862
853,9	13,148
854,3	14,376
854,7	18,405
855,2	22,062
855,6	18,576
856	22,633
856,4	19,69
856,9	21,033
857,3	16,319
857,7	14,833
858,2	13,49
858,6	13,033
859	7,833
859,4	11,062
859,9	13,005
860,3	14,833
860,7	13,576
861,1	15,319
861,6	17,805
862	19,776
862,4	17,919
862,9	17,662
863,3	19,433
863,7	21,205
864,1	15,576
864,6	19,233
865	18,033
865,4	20,662
865,9	20,09
866,3	20,69
866,7	17,576
867,1	20,319
867,6	15,576
868	13,29
868,4	9,776
868,8	10,976
869,3	13,376
869,7	19,033
870,1	19,462
870,6	21,662
871	67,548
871,4	71,519
871,8	65,833
872,3	62,29
872,7	54,205
873,1	54,519
873,5	52,176
874	9,433
874,4	8,176
874,8	12,433
875,3	12,205
875,7	17,89
876,1	17,405
876,5	15,69
877	14,748
877,4	15,09
877,8	13,29
878,2	16,176
878,7	17,976
879,1	17,948
879,5	17,176
879,9	14,405
880,4	11,89
880,8	17,462
881,2	13,49
881,7	8,948
882,1	7,462
882,5	12,633
882,9	15,233
883,4	14,405
883,8	8,576
884,2	9,119
884,6	9,833
885,1	8,976
885,5	4,205
885,9	7,062
886,3	7,548
886,8	10,548
887,2	5,205
887,6	8,433
888	11,89
888,5	14,633
888,9	10,633
889,3	11,776
889,8	11,805
890,2	15,405
890,6	13,662
891	10,662
891,5	10,662
891,9	9,833
892,3	13,062
892,7	7,719
893,2	6,633
893,6	2,062
894	4,319
894,4	0,433
894,9	2,119
895,3	0,462
895,7	6,548
896,1	7,09
896,6	9,776
897	11,49
897,4	16,29
897,8	18,005
898,3	17,576
898,7	16,862
899,1	17,519
899,5	21,576
900	21,576
900,4	17,719
900,8	13,29
901,2	9,29
901,7	8,776
902,1	11,548
902,5	9,462
902,9	7,948
903,4	12,405
903,8	12,262
904,2	18,319
904,6	14,233
905,1	12,89
905,5	10,605
905,9	8,005
906,3	6,319
906,8	9,49
907,2	6,49
907,6	8,519
908	7,976
908,5	7,405
908,9	12,148
909,3	12,348
909,7	10,748
910,2	12,89
910,6	12,262
911	16,233
911,4	18,976
911,9	16,09
912,3	17,748
912,7	20,033
913,1	19,633
913,6	20,148
914	18,405
914,4	17,262
914,8	18,576
915,3	16,919
915,7	18,833
916,1	15,29
916,5	12,519
916,9	6,89
917,4	6,976
917,8	3,205
918,2	5,49
918,6	2,005
919,1	3,148
919,5	11,319
919,9	18,09
920,3	17,919
920,8	22,433
921,2	17,919
921,6	19,49
922	18,976
922,5	9,09
922,9	6,205
923,3	9,89
923,7	7,662
924,2	10,605
924,6	8,319
925	11,89
925,4	19,376
925,8	22,49
926,3	18,09
926,7	19,205
927,1	18,176
927,5	23,49
928	20,919
928,4	16,776
928,8	13,233
929,2	13,576
929,7	18,262
930,1	19,662
930,5	14,433
930,9	18,433
931,3	23,119
931,8	23,548
932,2	22,862
932,6	16,519
933	9,376
933,5	9,548
933,9	11,176
934,3	3,29
934,7	6,662
935,2	3,376
935,6	2,176
936	0,862
936,4	4,462
936,8	0,948
937,3	9,062
937,7	8,119
938,1	15,405
938,5	15,433
939	23,89
939,4	21,862
939,8	17,405
940,2	13,976
940,6	12,405
941,1	6,605
941,5	10,119
941,9	9,405
942,3	11,148
942,8	14,919
943,2	11,833
943,6	11,433
944	16,719
944,4	15,29
944,9	14,205
945,3	11,748
945,7	10,69
946,1	10,433
946,6	10,519
947	6,405
947,4	2,776
947,8	5,148
948,2	6,09
948,7	4,062
949,1	8,462
949,5	8,005
949,9	11,176
950,3	13,062
950,8	11,262
951,2	10,633
951,6	14,719
952	14,176
952,5	13,148
952,9	11,948
953,3	13,548
953,7	11,433
954,1	14,776
954,6	14,719
955	16,805
955,4	15,005
955,8	20,005
956,2	18,548
956,7	23,005
957,1	21,919
957,5	21,776
957,9	19,376
958,3	23,605
958,8	21,948
959,2	23,205
959,6	29,662
960	27,748
960,5	24,09
960,9	24,948
961,3	26,319
961,7	23,376
962,1	24,976
962,6	15,405
963	17,433
963,4	21,005
963,8	16,205
964,2	8,633
964,7	8,205
965,1	10,89
965,5	13,09
965,9	10,919
966,3	11,69
966,8	14,09
967,2	21,719
967,6	21,919
968	12,976
968,4	14,89
968,9	11,719
969,3	8,29
969,7	7,033
970,1	5,833
970,5	4,176
971	11,262
971,4	3,69
971,8	4,805
972,2	6,948
972,6	11,748
973,1	9,976
973,5	12,576
973,9	7,976
974,3	15,805
974,7	16,49
975,2	16,033
975,6	9,062
976	7,862
976,4	7,262
976,8	10,033
977,3	2,548
977,7	4,09
978,1	2,948
978,5	6,348
978,9	11,862
979,4	10,376
979,8	7,805
980,2	11,833
980,6	17,348
981	18,719
981,5	18,89
981,9	14,29
982,3	12,948
982,7	13,405
983,1	13,89
983,6	4,033
984	2,719
984,4	3,662
984,8	6,319
985,2	9,405
985,6	9,833
986,1	5,319
986,5	10,69
986,9	9,976
987,3	9,033
987,7	7,519
988,2	0,319
988,6	1,29
989	5,205
989,4	-1,081
989,8	-1,167
990,3	0,519
990,7	-3,71
991,1	2,862
991,5	1,119
991,9	-1,224
992,3	2,29
992,8	4,976
993,2	2,519
993,6	4,69
994	6,405
994,4	13,233
994,9	13,262
995,3	18,862
995,7	14,433
996,1	15,833
996,5	15,919
996,9	17,548
997,4	10,319
997,8	8,49
998,2	2,605
998,6	6,662
999	5,29
999,5	6,09
999,9	2,262
1000,3	3,09
1000,7	4,49
1001,1	4,462
1001,5	6,862
1002	9,033
1002,4	9,062
1002,8	11,462
1003,2	9,433
1003,6	10,49
1004	15,776
1004,5	10,319
1004,9	10,976
1005,3	11,233
1005,7	8,776
1006,1	8,376
1006,6	10,148
1007	4,119
1007,4	3,976
1007,8	0,948
1008,2	3,348
1008,6	5,49
1009,1	7,49
1009,5	11,062
1009,9	14,919
1010,3	20,262
1010,7	21,348
1011,1	17,376
1011,6	13,148
1012	14,576
1012,4	10,405
1012,8	8,519
1013,2	2,49
1013,6	3,348
1014,1	1,633
1014,5	2,205
1014,9	1,233
1015,3	2,005
1015,7	3,405
1016,1	5,29
1016,6	5,405
1017	9,69
1017,4	8,148
1017,8	7,862
1018,2	4,29
1018,6	2,433
1019,1	2,09
1019,5	-2,338
1019,9	-3,567
1020,3	1,69
1020,7	3,862
1021,1	2,462
1021,6	2,176
1022	4,69
1022,4	8,948
1022,8	7,49
1023,2	8,233
1023,6	4,776
1024,1	9,662
1024,5	12,719
1024,9	10,576
1025,3	11,833
1025,7	5,976
1026,1	2,576
1026,6	8,262
1027	5,976
1027,4	6,262
1027,8	6,233
1028,2	11,09
1028,6	21,462
1029	18,948
1029,5	13,433
1029,9	18,205
1030,3	16,405
1030,7	18,862
1031,1	15,833
1031,5	14,176
1032	16,748
1032,4	23,233
1032,8	19,548
1033,2	15,662
1033,6	11,605
1034	6,376
1034,4	6,062
1034,9	12,49
1035,3	12,719
1035,7	13,49
1036,1	22,376
1036,5	22,948
1036,9	23,176
1037,4	24,148
1037,8	19,49
1038,2	17,719
1038,6	18,233
1039	12,69
1039,4	20,262
1039,8	26,519
1040,3	27,862
1040,7	29,805
1041,1	21,69
1041,5	22,948
1041,9	25,233
1042,3	18,205
1042,7	14,748
1043,2	12,605
1043,6	12,205
1044	20,948
1044,4	22,862
1044,8	20,748
1045,2	23,376
1045,6	25,719
1046,1	25,205
1046,5	21,405
1046,9	19,69
1047,3	15,862
1047,7	13,005
1048,1	14,348
1048,5	10,805
1049	7,633
1049,4	10,948
1049,8	10,548
1050,2	13,605
1050,6	14,062
1051	14,119
1051,4	11,319
1051,9	15,405
1052,3	14,633
1052,7	14,033
1053,1	11,262
1053,5	14,233
1053,9	15,062
1054,3	10,548
1054,8	8,433
1055,2	7,29
1055,6	10,29
1056	8,29
1056,4	5,519
1056,8	5,519
1057,2	11,433
1057,6	16,233
1058,1	18,748
1058,5	12,062
1058,9	15,348
1059,3	16,576
1059,7	13,319
1060,1	14,576
1060,5	10,033
1061	5,548
1061,4	8,719
1061,8	7,776
1062,2	7,69
1062,6	4,862
1063	9,548
1063,4	7,89
1063,8	10,49
1064,3	16,462
1064,7	18,005
1065,1	19,148
1065,5	22,976
1065,9	22,09
1066,3	23,605
1066,7	25,919
1067,1	21,69
1067,6	19,89
1068	24,119
1068,4	23,605
1068,8	21,576
1069,2	23,462
1069,6	18,89
1070	19,633
1070,4	18,719
1070,9	14,805
1071,3	16,948
1071,7	17,348
1072,1	9,519
1072,5	15,233
1072,9	12,633
1073,3	11,062
1073,7	8,233
1074,2	9,09
1074,6	8,09
1075	18,976
1075,4	19,205
1075,8	16,519
1076,2	20,262
1076,6	21,433
1077	20,833
1077,5	21,948
1077,9	14,919
1078,3	9,948
1078,7	13,176
1079,1	11,948
1079,5	15,319
1079,9	14,805
1080,3	16,119
1080,7	21,519
1081,2	21,862
1081,6	20,948
1082	24,462
1082,4	24,69
1082,8	26,519
1083,2	19,719
1083,6	16,405
1084	15,719
1084,5	20,005
1084,9	14,005
1085,3	12,519
1085,7	7,376
1086,1	13,662
1086,5	11,633
1086,9	15,405
1087,3	12,348
1087,7	17,49
1088,2	18,148
1088,6	21,09
1089	23,576
1089,4	25,69
1089,8	20,662
1090,2	19,69
1090,6	15,29
1091	9,976
1091,4	7,033
1091,9	1,205
1092,3	5,148
1092,7	6,748
1093,1	7,09
1093,5	8,433
1093,9	12,719
1094,3	14,033
1094,7	15,719
1095,1	15,548
1095,5	15,519
1096	21,433
1096,4	21,719
1096,8	23,462
1097,2	24,319
1097,6	27,976
1098	22,205
1098,4	25,29
1098,8	20,833
1099,2	20,319
1099,6	18,69
1100,1	18,005
1100,5	12,319
1100,9	14,119
1101,3	10,233
1101,7	6,262
1102,1	7,748
1102,5	3,948
1102,9	-1,51
1103,3	-0,395
1103,7	1,462
1104,2	1,662
1104,6	3,29
1105	1,805
1105,4	4,519
1105,8	8,433
1106,2	6,748
1106,6	4,005
1107	2,919
1107,4	3,1
1107,8	1,833
1108,3	0,433
