Data from Subt2_00037.txt Node
Date: Mon Aug 28 13:16:36 MSK 2023
User: vat
Spectrometer: MAYP114033
Trigger mode: 0
Integration Time (sec): 1,000000E0
Scans to average: 5
Electric dark correction enabled: true
Nonlinearity correction enabled: false
Boxcar width: 3
XAxis mode: Wavelengths
Number of Pixels in Spectrum: 2068
>>>>>Begin Spectral Data<<<<<
199,4	0,633
199,9	2,173
200,4	2,233
200,8	4,276
201,3	6,59
201,8	9,133
202,2	8,219
202,7	12,076
203,2	11,448
203,6	14,248
204,1	15,333
204,6	17,562
205	16,876
205,5	19,562
206	14,733
206,4	15,048
206,9	16,733
207,4	15,533
207,8	11,505
208,3	15,876
208,8	20,276
209,2	23,962
209,7	26,59
210,2	18,562
210,6	19,676
211,1	20,59
211,5	18,99
212	16,133
212,5	18,505
212,9	16,162
213,4	23,79
213,9	25,619
214,3	25,876
214,8	24,19
215,3	22,762
215,7	19,79
216,2	20,248
216,7	19,362
217,1	18,99
217,6	19,99
218,1	17,505
218,5	15,505
219	21,048
219,5	22,505
219,9	22,705
220,4	18,876
220,9	15,562
221,3	17,133
221,8	21,39
222,3	18,962
222,7	16,819
223,2	16,933
223,6	21,333
224,1	26,676
224,6	25,705
225	22,876
225,5	23,476
226	27,219
226,4	26,79
226,9	23,819
227,4	26,248
227,8	28,419
228,3	31,676
228,8	29,105
229,2	30,533
229,7	31,876
230,2	29,162
230,6	24,19
231,1	22,905
231,5	23,648
232	24,762
232,5	20,305
232,9	17,562
233,4	20,905
233,9	20,162
234,3	21,305
234,8	20,048
235,3	13,076
235,7	11,305
236,2	10,933
236,7	8,39
237,1	18,248
237,6	17,905
238,1	14,276
238,5	21,162
239	23,619
239,4	25,733
239,9	27,79
240,4	20,305
240,8	21,819
241,3	29,362
241,8	25,819
242,2	28,248
242,7	27,99
243,2	29,762
243,6	29,648
244,1	26,305
244,6	22,648
245	24,99
245,5	24,933
245,9	23,933
246,4	22,019
246,9	23,476
247,3	23,819
247,8	20,076
248,3	17,848
248,7	18,733
249,2	17,676
249,7	19,333
250,1	15,733
250,6	17,076
251	17,905
251,5	22,705
252	18,219
252,4	17,962
252,9	17,048
253,4	21,219
253,8	19,933
254,3	22,362
254,8	19,305
255,2	22,733
255,7	25,819
256,1	29,219
256,6	28,276
257,1	28,248
257,5	28,19
258	25,676
258,5	21,419
258,9	18,848
259,4	15,105
259,9	14,505
260,3	17,648
260,8	15,505
261,2	17,876
261,7	22,962
262,2	21,019
262,6	20,562
263,1	21,019
263,6	18,448
264	19,048
264,5	18,705
264,9	15,619
265,4	17,876
265,9	15,876
266,3	15,762
266,8	15,419
267,3	12,19
267,7	14,419
268,2	13,019
268,7	15,333
269,1	19,476
269,6	20,048
270	22,305
270,5	26,305
271	24,276
271,4	27,933
271,9	27,99
272,4	29,19
272,8	30,59
273,3	29,705
273,7	29,419
274,2	30,419
274,7	27,219
275,1	27,305
275,6	25,533
276,1	18,933
276,5	17,276
277	18,79
277,4	19,933
277,9	23,705
278,4	21,848
278,8	20,362
279,3	21,448
279,8	18,762
280,2	15,019
280,7	11,619
281,1	7,619
281,6	5,39
282,1	4,876
282,5	5,19
283	8,019
283,4	12,676
283,9	12,99
284,4	16,419
284,8	19,676
285,3	21,905
285,8	27,19
286,2	23,419
286,7	21,848
287,1	24,876
287,6	22,019
288,1	25,676
288,5	22,076
289	23,648
289,5	30,819
289,9	34,676
290,4	35,105
290,8	35,076
291,3	31,905
291,8	35,105
292,2	27,39
292,7	24,476
293,1	21,448
293,6	16,505
294,1	19,333
294,5	15,505
295	17,362
295,5	20,533
295,9	18,905
296,4	18,933
296,8	20,048
297,3	12,333
297,8	11,419
298,2	9,076
298,7	8,305
299,1	9,762
299,6	8,419
300,1	13,533
300,5	19,905
301	23,933
301,5	23,162
301,9	18,505
302,4	17,762
302,8	18,162
303,3	15,705
303,8	18,076
304,2	13,962
304,7	14,048
305,1	17,505
305,6	22,305
306,1	22,076
306,5	22,476
307	20,705
307,4	25,133
307,9	26,648
308,4	27,819
308,8	25,219
309,3	27,648
309,8	26,848
310,2	29,676
310,7	29,248
311,1	27,819
311,6	30,59
312,1	28,133
312,5	20,933
313	18,19
313,4	19,79
313,9	18,762
314,4	18,019
314,8	15,562
315,3	17,676
315,7	22,362
316,2	27,448
316,7	19,419
317,1	19,962
317,6	19,133
318	21,648
318,5	23,419
319	26,162
319,4	24,476
319,9	25,819
320,3	27,79
320,8	33,048
321,3	30,79
321,7	28,962
322,2	26,105
322,6	20,648
323,1	18,39
323,6	19,448
324	16,505
324,5	17,362
324,9	14,619
325,4	18,076
325,9	25,076
326,3	30,59
326,8	24,99
327,2	23,619
327,7	21,133
328,2	22,533
328,6	20,105
329,1	15,419
329,5	13,133
330	14,419
330,5	15,019
330,9	16,876
331,4	19,619
331,8	20,105
332,3	22,162
332,8	23,248
333,2	26,848
333,7	22,476
334,1	27,219
334,6	28,248
335,1	29,048
335,5	28,933
336	29,305
336,4	29,876
336,9	32,019
337,4	30,276
337,8	27,505
338,3	27,305
338,7	30,248
339,2	30,99
339,7	28,19
340,1	30,876
340,6	25,219
341	25,39
341,5	24,305
342	20,419
342,4	19,305
342,9	21,99
343,3	22,876
343,8	21,819
344,2	28,676
344,7	29,819
345,2	28,905
345,6	28,362
346,1	26,276
346,5	22,19
347	27,219
347,5	22,533
347,9	22,619
348,4	24,79
348,8	20,448
349,3	24,133
349,8	28,219
350,2	32,619
350,7	31,933
351,1	35,762
351,6	44,648
352	54,305
352,5	60,762
353	67,562
353,4	71,79
353,9	83,448
354,3	95,419
354,8	109,848
355,3	127,99
355,7	144,59
356,2	170,733
356,6	199,162
357,1	232,648
357,5	273,248
358	314,562
358,5	368,562
358,9	428,19
359,4	499,476
359,8	580,648
360,3	670,219
360,8	765,562
361,2	879,39
361,7	1002,133
362,1	1135,905
362,6	1277,419
363	1430,248
363,5	1598,933
364	1779,819
364,4	1957,648
364,9	2133,819
365,3	2309,076
365,8	2484,79
366,3	2646,276
366,7	2789,39
367,2	2913,362
367,6	3019,305
368,1	3108,733
368,5	3171,79
369	3199,648
369,5	3201,362
369,9	3177,305
370,4	3126,848
370,8	3063,305
371,3	2973,59
371,7	2871,876
372,2	2756,305
372,7	2630,305
373,1	2497,905
373,6	2357,419
374	2208,733
374,5	2064,476
374,9	1921,533
375,4	1781,533
375,9	1651,39
376,3	1524,019
376,8	1411,79
377,2	1297,619
377,7	1189,476
378,2	1093,848
378,6	1002,362
379,1	915,79
379,5	838,79
380	757,533
380,4	698,59
380,9	643,219
381,4	589,705
381,8	547,505
382,3	507,676
382,7	471,39
383,2	443,562
383,6	410,762
384,1	383,819
384,6	361,333
385	337,476
385,5	312,819
385,9	290,676
386,4	274,276
386,8	258,448
387,3	238,79
387,7	216,162
388,2	199,848
388,7	186,505
389,1	170,819
389,6	161,562
390	145,876
390,5	134,648
390,9	126,048
391,4	110,819
391,9	106,419
392,3	106,848
392,8	98,533
393,2	97,276
393,7	90,762
394,1	87,733
394,6	89,133
395,1	86,019
395,5	77,619
396	67,962
396,4	62,562
396,9	64,362
397,3	61,305
397,8	56,019
398,2	53,39
398,7	54,648
399,2	57,905
399,6	54,362
400,1	52,705
400,5	51,105
401	56,533
401,4	56,39
401,9	54,276
402,4	52,848
402,8	53,448
403,3	51,248
403,7	48,962
404,2	52,305
404,6	50,533
405,1	51,533
405,5	47,362
406	46,705
406,5	46,562
406,9	47,619
407,4	41,705
407,8	44,962
408,3	42,619
408,7	46,362
409,2	50,19
409,6	50,819
410,1	54,705
410,6	55,276
411	51,562
411,5	53,076
411,9	56,705
412,4	58,362
412,8	60,905
413,3	60,162
413,7	65,933
414,2	66,962
414,7	69,39
415,1	69,448
415,6	65,962
416	71,562
416,5	77,019
416,9	73,819
417,4	82,39
417,8	85,476
418,3	82,819
418,8	88,505
419,2	86,076
419,7	86,533
420,1	86,505
420,6	80,19
421	84,733
421,5	87,79
421,9	87,305
422,4	90,905
422,8	92,019
423,3	91,59
423,8	93,048
424,2	88,39
424,7	85,19
425,1	85,705
425,6	81,248
426	77,305
426,5	79,476
426,9	79,019
427,4	75,962
427,9	77,048
428,3	77,076
428,8	78,448
429,2	74,648
429,7	69,962
430,1	68,876
430,6	67,876
431	69,419
431,5	63,105
431,9	55,59
432,4	55,59
432,8	58,59
433,3	56,333
433,8	63,419
434,2	61,619
434,7	62,562
435,1	71,105
435,6	72,876
436	71,505
436,5	71,333
436,9	66,733
437,4	66,733
437,8	67,819
438,3	64,733
438,8	66,219
439,2	69,933
439,7	72,762
440,1	70,162
440,6	70,248
441	70,219
441,5	67,933
441,9	68,876
442,4	67,276
442,8	70,162
443,3	79,562
443,7	79,276
444,2	78,076
444,7	87,133
445,1	88,448
445,6	94,105
446	96,105
446,5	93,048
446,9	97,19
447,4	108,59
447,8	108,19
448,3	112,562
448,7	110,99
449,2	109,048
449,6	113,505
450,1	122,162
450,6	122,962
451	123,362
451,5	129,619
451,9	136,99
452,4	145,219
452,8	148,876
453,3	144,619
453,7	142,933
454,2	150,448
454,6	151,305
455,1	160,162
455,5	162,019
456	169,733
456,4	177,305
456,9	188,248
457,3	195,562
457,8	200,105
458,3	204,676
458,7	212,705
459,2	215,39
459,6	225,39
460,1	232,819
460,5	240,048
461	245,219
461,4	249,133
461,9	255,59
462,3	262,705
462,8	265,333
463,2	270,819
463,7	272,162
464,1	280,762
464,6	281,819
465	291,019
465,5	296,79
466	307,962
466,4	313,476
466,9	322,019
467,3	326,648
467,8	340,819
468,2	344,362
468,7	352,305
469,1	356,59
469,6	363,762
470	367,676
470,5	375,276
470,9	375,705
471,4	389,676
471,8	390,705
472,3	398,419
472,7	401,419
473,2	414,39
473,6	422,476
474,1	434,448
474,5	437,105
475	447,705
475,4	453,362
475,9	462,362
476,4	461,419
476,8	460,676
477,3	464,905
477,7	469,562
478,2	476,133
478,6	482,705
479,1	485,448
479,5	493,905
480	508,933
480,4	513,133
480,9	521,505
481,3	526,533
481,8	529,162
482,2	534,933
482,7	540,762
483,1	541,476
483,6	544,476
484	544,848
484,5	549,019
484,9	551,39
485,4	554,762
485,8	553,505
486,3	553,79
486,7	554,876
487,2	558,276
487,6	555,19
488,1	556,419
488,5	557,133
489	561,876
489,4	560,076
489,9	557,39
490,4	559,962
490,8	561,419
491,3	566,076
491,7	564,819
492,2	560,905
492,6	559,619
493,1	563,905
493,5	557,505
494	556,676
494,4	557,476
494,9	560,133
495,3	558,762
495,8	563,476
496,2	561,562
496,7	562,533
497,1	561,276
497,6	554,448
498	548,933
498,5	549,076
498,9	545,276
499,4	541,305
499,8	536,79
500,3	540,562
500,7	538,19
501,2	538,533
501,6	534,362
502,1	533,276
502,5	527,076
503	522,105
503,4	513,19
503,9	508,962
504,3	505,19
504,8	505,962
505,2	504,848
505,7	504,39
506,1	501,59
506,6	496,162
507	493,762
507,5	492,162
507,9	485,648
508,4	472,733
508,8	469,99
509,3	468,648
509,7	467,019
510,2	459,905
510,6	451,19
511,1	446,905
511,5	445,133
512	440,705
512,4	428,99
512,9	421,648
513,3	416,505
513,8	412,619
514,2	410,59
514,7	410,419
515,1	404,333
515,6	403,276
516	405,133
516,5	403,133
516,9	399,562
517,4	391,133
517,8	382,19
518,3	377,333
518,7	375,79
519,2	365,476
519,6	360,648
520,1	356,248
520,5	353,219
521	348,819
521,4	343,933
521,9	336,533
522,3	333,619
522,8	328,219
523,2	322,619
523,7	316,019
524,1	310,733
524,6	304,99
525	306,676
525,5	303,019
525,9	301,105
526,4	298,333
526,8	296,105
527,3	292,648
527,7	293,476
528,2	282,762
528,6	284,619
529,1	276,276
529,5	273,476
530	269,133
530,4	267,162
530,9	265,048
531,3	265,533
531,8	252,59
532,2	251,705
532,6	244,648
533,1	243,048
533,5	240,076
534	232,59
534,4	229,819
534,9	229,933
535,3	230,076
535,8	230,162
536,2	230,219
536,7	228,476
537,1	220,619
537,6	222,19
538	224,019
538,5	220,705
538,9	215,39
539,4	212,762
539,8	211,533
540,3	217,762
540,7	212,848
541,2	207,419
541,6	206,848
542,1	205,39
542,5	201,362
543	200,533
543,4	198,133
543,9	193,79
544,3	189,076
544,8	187,248
545,2	189,505
545,7	188,676
546,1	185,019
546,5	181,876
547	182,219
547,4	180,648
547,9	180,99
548,3	175,962
548,8	173,705
549,2	170,648
549,7	168,276
550,1	164,076
550,6	165,048
551	157,619
551,5	154,905
551,9	150,876
552,4	150,79
552,8	153,99
553,3	154,505
553,7	153,276
554,2	154,219
554,6	158,248
555,1	155,848
555,5	156,076
555,9	150,676
556,4	145,419
556,8	141,933
557,3	140,705
557,7	135,419
558,2	139,419
558,6	135,848
559,1	134,705
559,5	141,076
560	144,648
560,4	142,019
560,9	148,248
561,3	140,562
561,8	141,219
562,2	141,39
562,7	132,819
563,1	129,476
563,6	135,162
564	131,533
564,4	133,676
564,9	128,305
565,3	123,619
565,8	123,048
566,2	119,448
566,7	113,019
567,1	112,305
567,6	111,476
568	117,848
568,5	121,762
568,9	124,305
569,4	127,019
569,8	123,333
570,3	122,676
570,7	124,419
571,1	122,105
571,6	119,876
572	118,219
572,5	117,362
572,9	120,99
573,4	116,133
573,8	114,876
574,3	109,505
574,7	111,705
575,2	113,219
575,6	112,333
576,1	114,619
576,5	116,648
576,9	112,333
577,4	118,762
577,8	113,419
578,3	109,848
578,7	107,819
579,2	102,762
579,6	99,648
580,1	108,305
580,5	106,248
581	108,39
581,4	107,733
581,9	112,333
582,3	114,733
582,7	119,362
583,2	113,876
583,6	112,619
584,1	115,819
584,5	115,419
585	110,676
585,4	104,419
585,9	98,39
586,3	99,705
586,8	92,59
587,2	87,333
587,6	83,705
588,1	86,648
588,5	88,848
589	90,105
589,4	84,648
589,9	87,733
590,3	88,905
590,8	95,362
591,2	88,305
591,7	86,819
592,1	82,905
592,5	91,048
593	92,248
593,4	91,905
593,9	89,79
594,3	96,905
594,8	99,619
595,2	104,248
595,7	94,676
596,1	96,99
596,6	92,476
597	92,448
597,4	89,276
597,9	88,076
598,3	86,676
598,8	91,305
599,2	85,59
599,7	89,076
600,1	87,619
600,6	86,848
601	88,562
601,4	88,248
601,9	87,419
602,3	89,362
602,8	87,762
603,2	90,39
603,7	84,59
604,1	81,39
604,6	83,876
605	85,933
605,4	84,133
605,9	82,419
606,3	78,276
606,8	77,248
607,2	79,848
607,7	77,762
608,1	72,39
608,6	73,905
609	78,676
609,4	77,79
609,9	83,962
610,3	82,476
610,8	82,505
611,2	85,705
611,7	84,962
612,1	83,933
612,6	87,476
613	81,562
613,4	79,848
613,9	81,733
614,3	81,476
614,8	82,533
615,2	80,905
615,7	77,019
616,1	82,79
616,6	87,019
617	81,733
617,4	77,362
617,9	78,048
618,3	74,619
618,8	76,676
619,2	74,99
619,7	70,19
620,1	75,162
620,5	74,219
621	73,076
621,4	78,133
621,9	75,362
622,3	79,59
622,8	80,048
623,2	75,248
623,6	78,39
624,1	76,762
624,5	74,59
625	75,276
625,4	72,905
625,9	71,762
626,3	74,105
626,8	77,562
627,2	75,448
627,6	74,048
628,1	74,305
628,5	72,562
629	74,533
629,4	69,019
629,9	60,219
630,3	62,505
630,7	67,076
631,2	72,59
631,6	67,819
632,1	66,219
632,5	71,819
633	79,505
633,4	78,333
633,8	72,562
634,3	65,676
634,7	68,79
635,2	70,448
635,6	64,533
636,1	63,676
636,5	65,848
636,9	68,619
637,4	71,162
637,8	73,362
638,3	75,876
638,7	77,79
639,2	75,619
639,6	75,533
640	75,619
640,5	74,648
640,9	73,105
641,4	74,162
641,8	74,39
642,2	73,962
642,7	74,305
643,1	71,448
643,6	72,933
644	75,962
644,5	73,362
644,9	74,248
645,3	75,819
645,8	74,562
646,2	74,79
646,7	68,819
647,1	66,019
647,6	62,276
648	59,676
648,4	60,59
648,9	55,962
649,3	53,676
649,8	58,962
650,2	57,676
650,6	58,79
651,1	59,248
651,5	55,476
652	61,39
652,4	63,505
652,9	63,562
653,3	58,533
653,7	56,476
654,2	58,533
654,6	57,876
655,1	53,705
655,5	51,162
655,9	48,019
656,4	53,762
656,8	56,076
657,3	61,39
657,7	60,648
658,2	63,819
658,6	68,733
659	71,533
659,5	72,448
659,9	76,076
660,4	71,39
660,8	76,505
661,2	77,162
661,7	74,276
662,1	72,39
662,6	69,619
663	63,39
663,4	65,219
663,9	61,676
664,3	53,19
664,8	48,648
665,2	49,19
665,6	48,39
666,1	49,39
666,5	45,39
667	42,048
667,4	48,905
667,9	51,876
668,3	52,076
668,7	52,419
669,2	48,819
669,6	46,79
670,1	49,362
670,5	50,99
670,9	51,019
671,4	46,79
671,8	45,476
672,3	48,705
672,7	50,219
673,1	52,848
673,6	50,305
674	49,219
674,5	49,762
674,9	50,105
675,3	51,705
675,8	54,533
676,2	48,848
676,7	51,448
677,1	53,848
677,5	53,362
678	54,619
678,4	53,819
678,9	48,39
679,3	54,048
679,7	49,133
680,2	48,59
680,6	45,819
681,1	46,276
681,5	46,733
681,9	47,276
682,4	42,905
682,8	40,79
683,3	42,648
683,7	45,848
684,1	41,162
684,6	40,39
685	37,648
685,5	32,876
685,9	30,105
686,3	31,619
686,8	34,676
687,2	38,648
687,7	34,876
688,1	39,048
688,5	41,276
689	54,79
689,4	46,333
689,9	42,99
690,3	39,99
690,7	44,562
691,2	43,019
691,6	44,59
692	37,533
692,5	39,676
692,9	43,105
693,4	42,676
693,8	41,876
694,2	44,048
694,7	44,619
695,1	43,705
695,6	48,076
696	45,933
696,4	48,248
696,9	45,876
697,3	50,819
697,8	54,848
698,2	56,276
698,6	54,305
699,1	50,648
699,5	50,876
699,9	54,305
700,4	49,219
700,8	49,99
701,3	46,276
701,7	42,676
702,1	45,019
702,6	41,933
703	41,676
703,5	41,19
703,9	39,39
704,3	40,419
704,8	43,448
705,2	45,876
705,6	47,962
706,1	44,933
706,5	44,79
707	43,733
707,4	48,562
707,8	49,59
708,3	48,619
708,7	49,333
709,2	48,905
709,6	49,362
710	46,39
710,5	35,59
710,9	36,333
711,3	35,362
711,8	34,248
712,2	35,419
712,7	34,762
713,1	34,962
713,5	43,162
714	39,133
714,4	37,305
714,8	39,133
715,3	39,533
715,7	37,933
716,2	44,133
716,6	40,076
717	40,819
717,5	41,876
717,9	40,39
718,3	39,962
718,8	41,276
719,2	37,048
719,7	38,676
720,1	41,562
720,5	44,648
721	44,79
721,4	43,962
721,8	46,076
722,3	46,048
722,7	44,505
723,2	42,676
723,6	42,848
724	43,933
724,5	46,219
724,9	44,276
725,3	40,762
725,8	41,19
726,2	39,305
726,7	33,19
727,1	30,79
727,5	27,962
728	22,305
728,4	23,819
728,8	24,162
729,3	23,419
729,7	26,962
730,1	25,762
730,6	27,048
731	28,905
731,5	28,99
731,9	26,733
732,3	30,39
732,8	32,19
733,2	36,248
733,6	37,676
734,1	37,79
734,5	41,505
734,9	41,648
735,4	40,248
735,8	36,133
736,3	28,933
736,7	25,733
737,1	26,248
737,6	21,905
738	27,905
738,4	26,019
738,9	30,276
739,3	40,79
739,7	42,076
740,2	47,362
740,6	48,048
741,1	42,476
741,5	42,933
741,9	41,133
742,4	38,362
742,8	37,962
743,2	31,533
743,7	28,133
744,1	33,362
744,5	31,448
745	29,448
745,4	27,762
745,8	30,476
746,3	32,533
746,7	34,733
747,2	29,076
747,6	32,476
748	36,705
748,5	36,133
748,9	30,676
749,3	32,905
749,8	30,905
750,2	30,276
750,6	30,162
751,1	26,562
751,5	27,248
751,9	28,876
752,4	35,362
752,8	38,305
753,3	40,505
753,7	36,476
754,1	39,133
754,6	33,362
755	32,619
755,4	28,59
755,9	28,733
756,3	27,848
756,7	35,048
757,2	31,79
757,6	36,419
758	35,562
758,5	30,79
758,9	27,076
759,3	30,819
759,8	24,276
760,2	27,676
760,6	31,362
761,1	33,276
761,5	35,419
761,9	36,962
762,4	35,876
762,8	43,705
763,3	39,905
763,7	39,105
764,1	34,362
764,6	34,162
765	34,848
765,4	35,362
765,9	32,733
766,3	34,105
766,7	33,762
767,2	37,733
767,6	39,99
768	37,162
768,5	32,59
768,9	28,333
769,3	27,276
769,8	23,048
770,2	20,248
770,6	14,162
771,1	15,705
771,5	19,133
771,9	19,705
772,4	20,305
772,8	19,648
773,2	25,819
773,7	26,59
774,1	28,676
774,5	28,448
775	28,848
775,4	29,419
775,8	30,448
776,3	29,019
776,7	30,876
777,1	30,733
777,6	25,276
778	26,333
778,4	25,105
778,9	23,162
779,3	22,39
779,7	21,648
780,2	22,39
780,6	30,105
781	31,762
781,5	32,79
781,9	36,505
782,3	38,905
782,8	41,219
783,2	36,19
783,6	33,19
784,1	32,762
784,5	30,448
784,9	29,705
785,4	28,133
785,8	25,619
786,2	28,99
786,7	31,79
787,1	31,362
787,5	33,905
788	33,619
788,4	36,933
788,8	36,562
789,3	36,819
789,7	31,505
790,1	32,076
790,6	30,848
791	25,533
791,4	23,448
791,9	23,305
792,3	24,162
792,7	28,99
793,2	26,848
793,6	26,619
794	29,676
794,5	24,962
794,9	26,562
795,3	28,819
795,8	28,105
796,2	23,076
796,6	24,076
797,1	25,133
797,5	27,905
797,9	28,876
798,4	24,276
798,8	21,305
799,2	24,905
799,7	27,333
800,1	29,105
800,5	28,219
801	28,648
801,4	30,705
801,8	30,876
802,2	31,076
802,7	25,905
803,1	25,19
803,5	25,933
804	22,305
804,4	22,276
804,8	24,848
805,3	27,362
805,7	29,448
806,1	27,733
806,6	31,962
807	32,505
807,4	32,219
807,9	29,448
808,3	28,505
808,7	29,133
809,2	30,162
809,6	26,933
810	29,476
810,4	28,533
810,9	28,733
811,3	30,676
811,7	27,648
812,2	28,876
812,6	27,19
813	29,105
813,5	28,762
813,9	28,362
814,3	23,219
814,8	23,419
815,2	23,762
815,6	25,533
816,1	21,19
816,5	23,019
816,9	25,39
817,3	28,333
817,8	31,019
818,2	25,533
818,6	23,933
819,1	22,648
819,5	17,533
819,9	14,705
820,4	19,248
820,8	17,162
821,2	20,562
821,7	16,962
822,1	18,448
822,5	25,905
822,9	25,905
823,4	19,39
823,8	20,648
824,2	25,048
824,7	25,133
825,1	24,248
825,5	21,305
826	20,019
826,4	20,133
826,8	19,39
827,3	16,876
827,7	18,59
828,1	21,905
828,5	24,676
829	27,219
829,4	25,562
829,8	28,162
830,3	26,819
830,7	25,59
831,1	22,59
831,6	17,362
832	19,905
832,4	20,705
832,8	17,619
833,3	17,476
833,7	15,076
834,1	16,505
834,6	19,962
835	19,848
835,4	18,105
835,8	19,619
836,3	14,448
836,7	19,333
837,1	19,99
837,6	16,19
838	11,933
838,4	14,19
838,9	15,733
839,3	18,048
839,7	18,162
840,1	21,076
840,6	22,876
841	22,962
841,4	19,676
841,9	17,962
842,3	20,248
842,7	18,79
843,1	15,333
843,6	17,362
844	18,248
844,4	20,876
844,9	22,476
845,3	22,876
845,7	22,99
846,2	26,333
846,6	25,733
847	27,819
847,4	32,162
847,9	29,79
848,3	25,848
848,7	25,362
849,2	20,79
849,6	20,676
850	18,19
850,4	14,676
850,9	13,933
851,3	20,733
851,7	21,99
852,2	20,476
852,6	20,533
853	22,476
853,4	22,39
853,9	25,59
854,3	22,79
854,7	23,99
855,2	28,619
855,6	24,962
856	29,448
856,4	28,362
856,9	27,248
857,3	23,476
857,7	22,505
858,2	20,619
858,6	19,962
859	16,162
859,4	16,619
859,9	14,562
860,3	17,99
860,7	19,048
861,1	16,505
861,6	22,762
862	24,79
862,4	23,848
862,9	23,99
863,3	21,79
863,7	19,562
864,1	20,276
864,6	22,39
865	20,39
865,4	20,39
865,9	21,99
866,3	25,962
866,7	21,362
867,1	23,848
867,6	22,162
868	14,848
868,4	16,648
868,8	15,933
869,3	18,076
869,7	29,962
870,1	29,619
870,6	24,362
871	16,362
871,4	15,305
871,8	12,248
872,3	8,19
872,7	-1,61
873,1	-5,352
873,5	-7,381
874	9,305
874,4	11,819
874,8	14,39
875,3	16,133
875,7	16,733
876,1	21,333
876,5	26,876
877	23,219
877,4	22,533
877,8	22,79
878,2	22,562
878,7	26,733
879,1	21,962
879,5	17,476
879,9	15,133
880,4	11,39
880,8	13,019
881,2	12,333
881,7	12,962
882,1	18,819
882,5	20,105
882,9	23,59
883,4	27,162
883,8	26,219
884,2	27,362
884,6	22,876
885,1	19,305
885,5	23,733
885,9	25,048
886,3	23,905
886,8	27,333
887,2	25,448
887,6	27,819
888	32,648
888,5	26,476
888,9	24,619
889,3	22,648
889,8	19,276
890,2	16,762
890,6	18,848
891	11,162
891,5	14,848
891,9	13,476
892,3	17,905
892,7	14,105
893,2	17,362
893,6	15,133
894	16,59
894,4	12,362
894,9	14,105
895,3	11,333
895,7	16,076
896,1	9,762
896,6	9,676
897	15,79
897,4	17,333
897,8	19,248
898,3	21,162
898,7	21,705
899,1	29,762
899,5	29,048
900	24,276
900,4	23,619
900,8	15,105
901,2	14,533
901,7	14,79
902,1	10,933
902,5	11,933
902,9	9,619
903,4	13,562
903,8	18,648
904,2	20,562
904,6	17,619
905,1	18,19
905,5	19,048
905,9	18,19
906,3	16,848
906,8	15,533
907,2	13,105
907,6	14,048
908	11,419
908,5	9,219
908,9	14,19
909,3	14,133
909,7	14,79
910,2	12,562
910,6	11,905
911	15,133
911,4	13,962
911,9	11,39
912,3	12,105
912,7	14,619
913,1	14,362
913,6	16,505
914	23,476
914,4	24,39
914,8	28,733
915,3	28,905
915,7	30,219
916,1	31,333
916,5	31,619
916,9	24,019
917,4	26,19
917,8	21,962
918,2	24,362
918,6	20,39
919,1	22,619
919,5	25,448
919,9	30,333
920,3	31,276
920,8	33,705
921,2	30,562
921,6	25,619
922	22,762
922,5	18,505
922,9	17,676
923,3	21,048
923,7	18,39
924,2	19,876
924,6	25,276
925	26,533
925,4	25,076
925,8	23,762
926,3	18,733
926,7	18,362
927,1	16,219
927,5	19,333
928	19,533
928,4	16,705
928,8	18,048
929,2	18,248
929,7	22,105
930,1	22,19
930,5	21,076
930,9	25,162
931,3	32,619
931,8	32,562
932,2	30,933
932,6	27,362
933	25,019
933,5	22,276
933,9	16,248
934,3	12,362
934,7	10,648
935,2	9,19
935,6	11,533
936	11,676
936,4	16,505
936,8	21,076
937,3	24,99
937,7	21,733
938,1	24,076
938,5	23,676
939	27,105
939,4	23,676
939,8	18,962
940,2	12,105
940,6	10,533
941,1	10,933
941,5	13,362
941,9	9,305
942,3	11,133
942,8	13,562
943,2	11,619
943,6	15,019
944	12,733
944,4	12,048
944,9	12,248
945,3	13,762
945,7	14,848
946,1	17,648
946,6	14,419
947	17,962
947,4	13,505
947,8	21,59
948,2	21,333
948,7	21,533
949,1	24,276
949,5	25,676
949,9	23,79
950,3	22,419
950,8	14,905
951,2	11,99
951,6	11,762
952	11,962
952,5	12,933
952,9	13,333
953,3	13,076
953,7	12,676
954,1	16,248
954,6	15,19
955	17,762
955,4	16,962
955,8	19,333
956,2	21,848
956,7	27,019
957,1	23,048
957,5	25,533
957,9	23,105
958,3	25,533
958,8	21,162
959,2	26,162
959,6	27,905
960	27,533
960,5	24,933
960,9	26,39
961,3	27,648
961,7	31,105
962,1	29,276
962,6	24,505
963	26,99
963,4	29,819
963,8	21,905
964,2	18,648
964,7	17,876
965,1	15,848
965,5	18,905
965,9	16,848
966,3	15,39
966,8	19,619
967,2	20,99
967,6	18,562
968	19,248
968,4	18,162
968,9	16,905
969,3	14,076
969,7	13,276
970,1	13,648
970,5	14,648
971	20,048
971,4	17,819
971,8	18,59
972,2	18,076
972,6	20,79
973,1	18,533
973,5	20,59
973,9	11,848
974,3	16,876
974,7	18,505
975,2	23,019
975,6	20,419
976	22,39
976,4	19,162
976,8	21,333
977,3	16,648
977,7	15,79
978,1	12,39
978,5	14,819
978,9	16,59
979,4	17,505
979,8	16,476
980,2	21,79
980,6	23,733
981	21,419
981,5	19,162
981,9	17,019
982,3	15,905
982,7	15,905
983,1	9,333
983,6	6,162
984	7,79
984,4	7,248
984,8	6,962
985,2	10,048
985,6	10,819
986,1	9,962
986,5	13,648
986,9	15,762
987,3	19,019
987,7	17,076
988,2	12,333
988,6	9,962
989	13,076
989,4	8,819
989,8	9,448
990,3	8,99
990,7	12,105
991,1	13,99
991,5	15,476
991,9	12,276
992,3	13,362
992,8	12,248
993,2	9,019
993,6	10,533
994	14,133
994,4	19,362
994,9	18,39
995,3	22,876
995,7	26,762
996,1	26,019
996,5	23,419
996,9	25,362
997,4	20,619
997,8	23,19
998,2	23,133
998,6	22,048
999	22,248
999,5	22,733
999,9	20,133
1000,3	23,448
1000,7	26,305
1001,1	25,419
1001,5	25,676
1002	27,59
1002,4	26,59
1002,8	26,305
1003,2	22,076
1003,6	19,019
1004	21,762
1004,5	18,219
1004,9	17,99
1005,3	18,362
1005,7	23,648
1006,1	24,733
1006,6	26,705
1007	17,476
1007,4	20,019
1007,8	20,619
1008,2	25,219
1008,6	23,333
1009,1	25,933
1009,5	29,962
1009,9	35,676
1010,3	36,733
1010,7	37,762
1011,1	33,562
1011,6	26,762
1012	25,333
1012,4	20,133
1012,8	19,476
1013,2	14,79
1013,6	15,705
1014,1	12,219
1014,5	14,419
1014,9	11,676
1015,3	12,39
1015,7	11,905
1016,1	17,019
1016,6	17,962
1017	20,562
1017,4	19,762
1017,8	26,076
1018,2	23,648
1018,6	23,762
1019,1	21,419
1019,5	19,419
1019,9	21,333
1020,3	25,39
1020,7	22,533
1021,1	21,476
1021,6	22,99
1022	22,105
1022,4	19,819
1022,8	15,733
1023,2	11,276
1023,6	7,705
1024,1	12,133
1024,5	10,105
1024,9	14,219
1025,3	18,819
1025,7	21,076
1026,1	19,133
1026,6	25,533
1027	24,533
1027,4	26,333
1027,8	22,59
1028,2	24,248
1028,6	23,448
1029	22,19
1029,5	14,848
1029,9	15,848
1030,3	11,305
1030,7	14,59
1031,1	14,076
1031,5	14,076
1032	18,476
1032,4	26,533
1032,8	24,448
1033,2	24,476
1033,6	20,305
1034	13,762
1034,4	13,933
1034,9	16,105
1035,3	11,733
1035,7	13,619
1036,1	19,276
1036,5	20,819
1036,9	19,362
1037,4	22,076
1037,8	20,448
1038,2	22,733
1038,6	20,448
1039	16,048
1039,4	18,876
1039,8	30,448
1040,3	29,676
1040,7	32,333
1041,1	24,705
1041,5	27,705
1041,9	35,905
1042,3	32,248
1042,7	23,705
1043,2	26,848
1043,6	26,619
1044	33,476
1044,4	32,505
1044,8	25,933
1045,2	23,933
1045,6	30,133
1046,1	28,305
1046,5	26,248
1046,9	25,076
1047,3	27,505
1047,7	26,533
1048,1	25,562
1048,5	21,19
1049	18,705
1049,4	15,276
1049,8	17,619
1050,2	13,79
1050,6	10,448
1051	14,648
1051,4	12,79
1051,9	15,705
1052,3	20,133
1052,7	17,819
1053,1	11,476
1053,5	14,762
1053,9	16,162
1054,3	14,533
1054,8	11,733
1055,2	11,219
1055,6	10,333
1056	18,39
1056,4	18,848
1056,8	15,819
1057,2	16,562
1057,6	20,39
1058,1	21,676
1058,5	19,333
1058,9	20,019
1059,3	19,676
1059,7	20,276
1060,1	23,99
1060,5	22,248
1061	17,533
1061,4	20,619
1061,8	21,79
1062,2	22,276
1062,6	22,819
1063	18,762
1063,4	17,362
1063,8	18,619
1064,3	27,333
1064,7	25,39
1065,1	26,933
1065,5	27,876
1065,9	33,448
1066,3	33,048
1066,7	40,933
1067,1	31,79
1067,6	36,99
1068	42,533
1068,4	42,019
1068,8	39,448
1069,2	39,333
1069,6	32,819
1070	35,933
1070,4	28,962
1070,9	20,762
1071,3	22,676
1071,7	21,333
1072,1	19,305
1072,5	17,905
1072,9	17,505
1073,3	18,305
1073,7	18,276
1074,2	19,705
1074,6	19,476
1075	23,362
1075,4	31,305
1075,8	24,676
1076,2	27,676
1076,6	28,79
1077	27,705
1077,5	26,562
1077,9	24,219
1078,3	14,619
1078,7	19,933
1079,1	19,733
1079,5	18,59
1079,9	20,19
1080,3	24,476
1080,7	27,533
1081,2	32,362
1081,6	34,019
1082	33,505
1082,4	32,762
1082,8	29,733
1083,2	22,105
1083,6	18,133
1084	19,876
1084,5	18,448
1084,9	15,333
1085,3	16,733
1085,7	13,79
1086,1	18,219
1086,5	18,505
1086,9	15,076
1087,3	14,905
1087,7	18,276
1088,2	19,619
1088,6	22,19
1089	25,876
1089,4	29,99
1089,8	30,105
1090,2	27,276
1090,6	22,876
1091	19,076
1091,4	16,762
1091,9	14,248
1092,3	13,79
1092,7	11,533
1093,1	15,705
1093,5	15,819
1093,9	18,59
1094,3	17,733
1094,7	15,79
1095,1	12,819
1095,5	16,876
1096	17,076
1096,4	22,105
1096,8	27,333
1097,2	27,562
1097,6	29,505
1098	27,876
1098,4	27,019
1098,8	26,762
1099,2	25,333
1099,6	20,819
1100,1	21,733
1100,5	19,505
1100,9	21,105
1101,3	20,305
1101,7	13,276
1102,1	12,99
1102,5	12,219
1102,9	10,562
1103,3	14,162
1103,7	13,333
1104,2	9,076
1104,6	12,59
1105	10,99
1105,4	10,819
1105,8	10,219
1106,2	6,562
1106,6	5,505
1107	6,105
1107,4	5
1107,8	2,733
1108,3	0,283
