Data from Subt2_00110.txt Node
Date: Mon Aug 28 13:39:31 MSK 2023
User: vat
Spectrometer: MAYP114033
Trigger mode: 0
Integration Time (sec): 1,000000E0
Scans to average: 5
Electric dark correction enabled: true
Nonlinearity correction enabled: false
Boxcar width: 3
XAxis mode: Wavelengths
Number of Pixels in Spectrum: 2068
>>>>>Begin Spectral Data<<<<<
199,4	-0,083
199,9	-3,033
200,4	-4,267
200,8	-0,062
201,3	0,024
201,8	3,51
202,2	4,795
202,7	5,967
203,2	8,852
203,6	14,252
204,1	14,138
204,6	15,71
205	13,967
205,5	15,224
206	14,938
206,4	12,538
206,9	14,681
207,4	13,252
207,8	14,195
208,3	14,995
208,8	12,224
209,2	13,824
209,7	15,824
210,2	14,681
210,6	11,91
211,1	11,938
211,5	11,338
212	16,481
212,5	14,11
212,9	12,395
213,4	11,967
213,9	14,91
214,3	14,767
214,8	13,681
215,3	10,624
215,7	12,31
216,2	14,338
216,7	19,395
217,1	17,567
217,6	19,91
218,1	19,91
218,5	22,195
219	23,652
219,5	27,995
219,9	16,967
220,4	23,51
220,9	18,481
221,3	18,452
221,8	13,081
222,3	15,738
222,7	13,31
223,2	14,367
223,6	9,967
224,1	14,252
224,6	16,538
225	20,195
225,5	17,31
226	16,281
226,4	20,767
226,9	18,738
227,4	21,881
227,8	22,024
228,3	22,081
228,8	23,595
229,2	26,824
229,7	27,652
230,2	31,338
230,6	28,224
231,1	28,595
231,5	32,395
232	36,424
232,5	33,281
232,9	31,424
233,4	31,738
233,9	31,567
234,3	31,424
234,8	28,624
235,3	22,852
235,7	24,452
236,2	25,595
236,7	23,11
237,1	24,881
237,6	23,081
238,1	22,624
238,5	25,252
239	22,424
239,4	20,795
239,9	23,281
240,4	17,967
240,8	22,881
241,3	24,481
241,8	18,91
242,2	17,024
242,7	17,224
243,2	18,567
243,6	23,481
244,1	17,024
244,6	11,252
245	12,024
245,5	17,11
245,9	18,052
246,4	13,91
246,9	11,481
247,3	14,195
247,8	10,938
248,3	12,052
248,7	14,195
249,2	14,481
249,7	19,367
250,1	15,681
250,6	12,281
251	18,538
251,5	19,995
252	17,767
252,4	15,338
252,9	14,481
253,4	21,452
253,8	24,452
254,3	22,938
254,8	25,881
255,2	22,767
255,7	23,31
256,1	17,71
256,6	14,452
257,1	13,91
257,5	14,052
258	6,938
258,5	8,052
258,9	4,452
259,4	6,024
259,9	1,795
260,3	3,11
260,8	4,51
261,2	9,738
261,7	11,195
262,2	14,281
262,6	17,11
263,1	19,624
263,6	15,138
264	17,252
264,5	15,624
264,9	17,31
265,4	17,767
265,9	16,538
266,3	18,538
266,8	23,795
267,3	24,052
267,7	24,91
268,2	24,31
268,7	24,995
269,1	23,424
269,6	22,824
270	18,024
270,5	23,024
271	19,567
271,4	12,938
271,9	11,024
272,4	7,995
272,8	10,595
273,3	13,852
273,7	4,452
274,2	7,138
274,7	14,052
275,1	14,424
275,6	19,652
276,1	16,452
276,5	15,624
277	16,367
277,4	16,71
277,9	11,538
278,4	9,024
278,8	6,624
279,3	7,881
279,8	10,31
280,2	15,91
280,7	16,138
281,1	20,31
281,6	21,71
282,1	24,31
282,5	24,024
283	22,51
283,4	22,824
283,9	20,995
284,4	19,567
284,8	21,195
285,3	16,024
285,8	15,652
286,2	12,938
286,7	8,71
287,1	10,624
287,6	7,138
288,1	7,71
288,5	10,281
289	7,967
289,5	11,052
289,9	12,224
290,4	11,424
290,8	17,51
291,3	18,738
291,8	19,31
292,2	23,481
292,7	19,795
293,1	21,224
293,6	20,538
294,1	18,252
294,5	18,795
295	19,452
295,5	18,31
295,9	21,195
296,4	15,681
296,8	16,052
297,3	16,767
297,8	19,167
298,2	16,367
298,7	17,138
299,1	16,367
299,6	20,395
300,1	20,052
300,5	20,71
301	17,281
301,5	20,967
301,9	17,624
302,4	19,11
302,8	19,024
303,3	22,538
303,8	21,395
304,2	24,767
304,7	22,395
305,1	22,11
305,6	18,252
306,1	16,31
306,5	7,567
307	8,31
307,4	0,138
307,9	1,138
308,4	4,481
308,8	9,538
309,3	12,395
309,8	15,224
310,2	9,652
310,7	16,281
311,1	18,138
311,6	16,367
312,1	11,767
312,5	7,11
313	7,052
313,4	16,481
313,9	15,452
314,4	8,767
314,8	12,338
315,3	18,395
315,7	23,795
316,2	26,652
316,7	24,081
317,1	21,91
317,6	27,595
318	28,652
318,5	25,595
319	21,681
319,4	23,481
319,9	17,395
320,3	20,795
320,8	18,567
321,3	11,481
321,7	9,281
322,2	8,31
322,6	9,738
323,1	14,024
323,6	13,681
324	12,167
324,5	14,824
324,9	21,795
325,4	22,767
325,9	19,938
326,3	16,167
326,8	11,767
327,2	17,767
327,7	22,281
328,2	19,424
328,6	22,167
329,1	17,424
329,5	21,424
330	23,281
330,5	27,395
330,9	21,338
331,4	17,338
331,8	12,138
332,3	20,681
332,8	17,681
333,2	19,195
333,7	8,195
334,1	3,71
334,6	3,338
335,1	12,31
335,5	8,624
336	11,367
336,4	13,224
336,9	17,138
337,4	19,767
337,8	19,91
338,3	14,052
338,7	12,538
339,2	12,567
339,7	10,624
340,1	7,424
340,6	12,652
341	13,024
341,5	12,938
342	17,424
342,4	12,624
342,9	14,31
343,3	17,51
343,8	16,538
344,2	18,167
344,7	16,224
345,2	16,281
345,6	21,538
346,1	20,995
346,5	20,481
347	16,052
347,5	18,252
347,9	22,881
348,4	22,395
348,8	21,595
349,3	17,595
349,8	19,538
350,2	23,624
350,7	18,252
351,1	18,624
351,6	17,052
352	18,767
352,5	29,767
353	33,567
353,4	40,71
353,9	56,938
354,3	65,395
354,8	73,452
355,3	86,338
355,7	96,224
356,2	109,681
356,6	126,167
357,1	144,938
357,5	169,71
358	202,824
358,5	232,167
358,9	265,595
359,4	308,338
359,8	357,738
360,3	404,91
360,8	464,195
361,2	524,967
361,7	601,452
362,1	681,795
362,6	768,052
363	859,824
363,5	961,052
364	1062,795
364,4	1176,538
364,9	1286,024
365,3	1396,481
365,8	1509,738
366,3	1605,91
366,7	1690,938
367,2	1772,652
367,6	1835,71
368,1	1889,11
368,5	1928,195
369	1941,567
369,5	1952,11
369,9	1949,938
370,4	1928,31
370,8	1891,167
371,3	1837,881
371,7	1772,91
372,2	1707,338
372,7	1625,824
373,1	1546,91
373,6	1455,91
374	1364,167
374,5	1276,138
374,9	1192,395
375,4	1106,938
375,9	1030,281
376,3	947,31
376,8	875,167
377,2	813,738
377,7	747,424
378,2	684,91
378,6	628,51
379,1	570,452
379,5	524,681
380	482,11
380,4	438,967
380,9	405,31
381,4	372,31
381,8	343,795
382,3	320,424
382,7	297,852
383,2	274,338
383,6	257,424
384,1	243,024
384,6	227,31
385	212,567
385,5	198,91
385,9	189,395
386,4	183,71
386,8	169,881
387,3	157,738
387,7	147,681
388,2	137,738
388,7	128,367
389,1	117,681
389,6	104,481
390	100,424
390,5	93,11
390,9	88,71
391,4	81,452
391,9	80,252
392,3	74,91
392,8	74,252
393,2	69,938
393,7	71,938
394,1	67,538
394,6	70,395
395,1	73,852
395,5	73,767
396	72,452
396,4	66,252
396,9	64,624
397,3	68,138
397,8	60,452
398,2	51,595
398,7	45,595
399,2	42,595
399,6	43,452
400,1	32,51
400,5	33,052
401	42,738
401,4	39,767
401,9	44,31
402,4	43,567
402,8	49,71
403,3	56,252
403,7	51,452
404,2	43,51
404,6	49,052
405,1	50,51
405,5	52,195
406	52,852
406,5	50,71
406,9	58,767
407,4	58,624
407,8	57,738
408,3	54,738
408,7	52,138
409,2	48,31
409,6	52,452
410,1	46,424
410,6	48,51
411	52,595
411,5	53,081
411,9	57,395
412,4	61,795
412,8	60,252
413,3	62,995
413,7	65,995
414,2	63,224
414,7	67,081
415,1	69,538
415,6	68,824
416	75,624
416,5	79,681
416,9	83,881
417,4	89,681
417,8	91,052
418,3	94,595
418,8	97,424
419,2	98,567
419,7	99,738
420,1	97,938
420,6	100,824
421	106,681
421,5	109,052
421,9	107,824
422,4	109,167
422,8	108,71
423,3	111,252
423,8	107,595
424,2	105,881
424,7	107,081
425,1	109,767
425,6	109,51
426	115,081
426,5	118,71
426,9	121,052
427,4	123,767
427,9	124,395
428,3	126,767
428,8	125,538
429,2	125,738
429,7	125,795
430,1	127,252
430,6	121,71
431	120,967
431,5	121,11
431,9	126,024
432,4	120,081
432,8	122,767
433,3	121,367
433,8	133,452
434,2	138,367
434,7	140,195
435,1	143,224
435,6	148,452
436	150,652
436,5	162,91
436,9	160,51
437,4	163,31
437,8	169,51
438,3	179,024
438,8	188,481
439,2	198,795
439,7	207,681
440,1	216,567
440,6	225,595
441	235,052
441,5	238,852
441,9	244,31
442,4	249,052
442,8	254,567
443,3	266,452
443,7	271,852
444,2	280,195
444,7	293,71
445,1	310,481
445,6	322,652
446	334,081
446,5	346,11
446,9	362,767
447,4	380,252
447,8	396,767
448,3	410,71
448,7	425,595
449,2	442,052
449,6	461,052
450,1	478,395
450,6	495,452
451	515,138
451,5	536,624
451,9	557,024
452,4	576,31
452,8	594,795
453,3	612,91
453,7	632,052
454,2	646,167
454,6	665,681
455,1	688,738
455,5	708,824
456	730,767
456,4	756,595
456,9	782,367
457,3	806,624
457,8	826,052
458,3	849,967
458,7	880,881
459,2	907,652
459,6	937,567
460,1	969,938
460,5	1001,395
461	1033,595
461,4	1062,281
461,9	1089,338
462,3	1121,71
462,8	1153,138
463,2	1179,424
463,7	1211,252
464,1	1242,195
464,6	1275,138
465	1312,281
465,5	1342,538
466	1374,938
466,4	1407,052
466,9	1438,51
467,3	1475,224
467,8	1514,31
468,2	1546,681
468,7	1585,338
469,1	1622,338
469,6	1655,567
470	1695,167
470,5	1732,452
470,9	1765,395
471,4	1803,31
471,8	1831,395
472,3	1864,652
472,7	1903,081
473,2	1938,852
473,6	1974,195
474,1	2010,681
474,5	2040,167
475	2081,252
475,4	2112,71
475,9	2149,081
476,4	2182,91
476,8	2217,195
477,3	2253,195
477,7	2294,281
478,2	2325,91
478,6	2358,424
479,1	2388,481
479,5	2422,938
480	2454,538
480,4	2482,395
480,9	2510,824
481,3	2543,881
481,8	2576,738
482,2	2613,624
482,7	2643,281
483,1	2666,481
483,6	2693,367
484	2716,424
484,5	2746,252
484,9	2777,938
485,4	2803,31
485,8	2829,852
486,3	2859,281
486,7	2891,367
487,2	2925,367
487,6	2945,824
488,1	2967,652
488,5	2989,795
489	3015,538
489,4	3042,481
489,9	3058,51
490,4	3072,767
490,8	3094,71
491,3	3114,738
491,7	3135,338
492,2	3150,51
492,6	3164,252
493,1	3187,967
493,5	3208,881
494	3234,938
494,4	3252,052
494,9	3268,424
495,3	3275,681
495,8	3297,167
496,2	3309,052
496,7	3323,367
497,1	3326,652
497,6	3338,995
498	3346,567
498,5	3364,681
498,9	3373,538
499,4	3384,252
499,8	3397,995
500,3	3415,481
500,7	3430,852
501,2	3446,595
501,6	3458,652
502,1	3475,938
502,5	3487,824
503	3496,51
503,4	3507,938
503,9	3513,824
504,3	3517,995
504,8	3528,71
505,2	3535,51
505,7	3545,224
506,1	3550,224
506,6	3553,281
507	3566,024
507,5	3577,138
507,9	3583,995
508,4	3591,681
508,8	3594,31
509,3	3603,538
509,7	3610,481
510,2	3610,881
510,6	3621,624
511,1	3628,91
511,5	3629,567
512	3637,852
512,4	3647,224
512,9	3651,852
513,3	3655,767
513,8	3660,995
514,2	3668,681
514,7	3670,824
515,1	3680,852
515,6	3681,138
516	3693,881
516,5	3702,995
516,9	3708,91
517,4	3716,424
517,8	3728,452
518,3	3734,938
518,7	3748,967
519,2	3754,738
519,6	3763,138
520,1	3770,938
520,5	3777,938
521	3775,224
521,4	3779,91
521,9	3779,424
522,3	3785,795
522,8	3795,91
523,2	3799,224
523,7	3802,024
524,1	3816,995
524,6	3817,681
525	3829,71
525,5	3826,338
525,9	3830,052
526,4	3829,967
526,8	3839,481
527,3	3850,138
527,7	3866,338
528,2	3871,824
528,6	3887,595
529,1	3899,11
529,5	3915,995
530	3916,224
530,4	3924,052
530,9	3924,681
531,3	3938,71
531,8	3948,595
532,2	3952,138
532,6	3957,624
533,1	3967,595
533,5	3971,795
534	3982,795
534,4	3983,967
534,9	3989,224
535,3	4004,767
535,8	4016,652
536,2	4028,91
536,7	4041,738
537,1	4054,481
537,6	4065,681
538	4079,567
538,5	4080,452
538,9	4086,852
539,4	4091,938
539,8	4098,738
540,3	4110,795
540,7	4114,881
541,2	4123,91
541,6	4134,338
542,1	4140,91
542,5	4153,052
543	4156,195
543,4	4164,995
543,9	4177,052
544,3	4185,024
544,8	4199,252
545,2	4209,91
545,7	4219,538
546,1	4233,138
546,5	4234,338
547	4242,824
547,4	4249,51
547,9	4252,424
548,3	4264,395
548,8	4267,852
549,2	4279,91
549,7	4292,11
550,1	4294,452
550,6	4299,224
551	4308,481
551,5	4315,052
551,9	4323,138
552,4	4325,51
552,8	4335,195
553,3	4344,481
553,7	4356,252
554,2	4369,138
554,6	4382,281
555,1	4390,567
555,5	4405,052
555,9	4407,452
556,4	4424,11
556,8	4438,881
557,3	4438,138
557,7	4443,11
558,2	4455,11
558,6	4455,738
559,1	4469,395
559,5	4474,738
560	4467,281
560,4	4473,938
560,9	4478,938
561,3	4484,71
561,8	4501,595
562,2	4502,624
562,7	4502,338
563,1	4513,824
563,6	4519,51
564	4520,367
564,4	4524,681
564,9	4520,167
565,3	4524,824
565,8	4531,252
566,2	4531,852
566,7	4542,367
567,1	4551,767
567,6	4550,481
568	4556,138
568,5	4560,91
568,9	4566,938
569,4	4571,367
569,8	4566,595
570,3	4569,481
570,7	4577,71
571,1	4578,138
571,6	4573,395
572	4571,681
572,5	4569,91
572,9	4572,224
573,4	4565,195
573,8	4569,138
574,3	4569,824
574,7	4574,938
575,2	4568,967
575,6	4577,91
576,1	4581,167
576,5	4581,052
576,9	4575,967
577,4	4573,395
577,8	4568,395
578,3	4574,224
578,7	4562,367
579,2	4551,538
579,6	4548,167
580,1	4544,567
580,5	4545,852
581	4540,852
581,4	4535,224
581,9	4524,881
582,3	4520,081
582,7	4513,995
583,2	4507,481
583,6	4486,367
584,1	4479,281
584,5	4471,51
585	4470,824
585,4	4463,71
585,9	4458,538
586,3	4442,967
586,8	4440,452
587,2	4440,938
587,6	4434,652
588,1	4429,195
588,5	4427,567
589	4420,767
589,4	4420,938
589,9	4415,767
590,3	4401,795
590,8	4392,281
591,2	4380,795
591,7	4374,51
592,1	4366,195
592,5	4357,052
593	4357,91
593,4	4354,395
593,9	4350,567
594,3	4343,167
594,8	4336,967
595,2	4334,195
595,7	4331,224
596,1	4317,167
596,6	4303,938
597	4296,71
597,4	4296,31
597,9	4280,11
598,3	4271,395
598,8	4258,71
599,2	4260,681
599,7	4260,452
600,1	4252,595
600,6	4243,338
601	4239,367
601,4	4232,881
601,9	4223,424
602,3	4206,138
602,8	4189,538
603,2	4174,995
603,7	4162,11
604,1	4150,081
604,6	4127,967
605	4132,424
605,4	4119,395
605,9	4102,967
606,3	4101,481
606,8	4086,995
607,2	4073,367
607,7	4064,138
608,1	4038,252
608,6	4028,052
609	4021,852
609,4	4007,481
609,9	3999,881
610,3	3986,624
610,8	3980,424
611,2	3963,681
611,7	3947,595
612,1	3930,624
612,6	3904,881
613	3882,938
613,4	3874,195
613,9	3857,081
614,3	3849,052
614,8	3831,167
615,2	3826,167
615,7	3818,795
616,1	3814,224
616,6	3803,081
617	3787,681
617,4	3771,681
617,9	3763,481
618,3	3744,195
618,8	3728,767
619,2	3714,995
619,7	3697,681
620,1	3683,624
620,5	3663,967
621	3647,652
621,4	3636,681
621,9	3620,91
622,3	3603,281
622,8	3581,938
623,2	3564,281
623,6	3553,852
624,1	3536,167
624,5	3515,767
625	3498,795
625,4	3480,71
625,9	3470,767
626,3	3460,824
626,8	3440,252
627,2	3428,852
627,6	3412,11
628,1	3393,31
628,5	3374,824
629	3356,481
629,4	3333,595
629,9	3320,167
630,3	3295,481
630,7	3275,481
631,2	3257,567
631,6	3239,281
632,1	3222,367
632,5	3208,795
633	3192,167
633,4	3175,538
633,8	3162,138
634,3	3150,681
634,7	3139,624
635,2	3121,881
635,6	3102,281
636,1	3085,824
636,5	3069,767
636,9	3057,71
637,4	3041,395
637,8	3020,881
638,3	3000,681
638,7	2985,995
639,2	2968,852
639,6	2959,452
640	2935,767
640,5	2915,081
640,9	2899,024
641,4	2889,138
641,8	2876,024
642,2	2857,967
642,7	2842,31
643,1	2829,567
643,6	2821,738
644	2810,081
644,5	2801,138
644,9	2780,224
645,3	2770,624
645,8	2750,424
646,2	2736,567
646,7	2713,424
647,1	2697,652
647,6	2676,51
648	2664,138
648,4	2644,795
648,9	2634,91
649,3	2622,567
649,8	2612,224
650,2	2599,252
650,6	2588,595
651,1	2578,795
651,5	2567,767
652	2555,71
652,4	2542,481
652,9	2530,11
653,3	2515,281
653,7	2500,795
654,2	2485,024
654,6	2474,195
655,1	2456,052
655,5	2440,31
655,9	2428,138
656,4	2416,024
656,8	2398,595
657,3	2382,11
657,7	2370,338
658,2	2358,538
658,6	2343,738
659	2327,338
659,5	2311,395
659,9	2294,795
660,4	2283,824
660,8	2268,167
661,2	2252,595
661,7	2237,767
662,1	2226,738
662,6	2215,824
663	2206,91
663,4	2192,367
663,9	2175,31
664,3	2164,052
664,8	2146,767
665,2	2131,052
665,6	2113,424
666,1	2099,11
666,5	2084,138
667	2075,738
667,4	2068,624
667,9	2065,71
668,3	2054,367
668,7	2042,538
669,2	2028,052
669,6	2016,824
670,1	1999,31
670,5	1982,167
670,9	1965,367
671,4	1952,51
671,8	1937,252
672,3	1929,052
672,7	1915,967
673,1	1900,852
673,6	1887,624
674	1876,395
674,5	1859,567
674,9	1847,538
675,3	1824,424
675,8	1813,338
676,2	1800,281
676,7	1790,052
677,1	1776,338
677,5	1766,91
678	1757,338
678,4	1755,51
678,9	1746,367
679,3	1742,167
679,7	1724,51
680,2	1709,938
680,6	1701,51
681,1	1695,938
681,5	1681,224
681,9	1668,51
682,4	1656,252
682,8	1652,11
683,3	1649,052
683,7	1640,452
684,1	1624,681
684,6	1614,052
685	1605,424
685,5	1593,71
685,9	1579,967
686,3	1568,167
686,8	1553,995
687,2	1545,795
687,7	1538,31
688,1	1522,624
688,5	1513,995
689	1507,052
689,4	1495,881
689,9	1486,738
690,3	1480,281
690,7	1465,767
691,2	1455,738
691,6	1445,138
692	1428,91
692,5	1416,31
692,9	1401,395
693,4	1385,51
693,8	1379,338
694,2	1369,71
694,7	1359,881
695,1	1355,052
695,6	1347,967
696	1346,71
696,4	1343,224
696,9	1332,481
697,3	1326,024
697,8	1315,367
698,2	1300,967
698,6	1289,767
699,1	1277,967
699,5	1260,224
699,9	1255,395
700,4	1246,052
700,8	1240,91
701,3	1236,595
701,7	1231,71
702,1	1226,167
702,6	1221,195
703	1207,967
703,5	1196,281
703,9	1185,995
704,3	1173,024
704,8	1164,652
705,2	1151,967
705,6	1148,252
706,1	1141,938
706,5	1142,424
707	1137,795
707,4	1134,938
707,8	1125,452
708,3	1120,852
708,7	1105,881
709,2	1101,938
709,6	1087,881
710	1078,652
710,5	1071,738
710,9	1068,681
711,3	1056,967
711,8	1055,881
712,2	1047,595
712,7	1039,538
713,1	1026,424
713,5	1017,167
714	1008,71
714,4	1002,395
714,8	990,852
715,3	984,195
715,7	977,424
716,2	973,938
716,6	968,681
717	960,567
717,5	953,367
717,9	953,081
718,3	946,938
718,8	946,052
719,2	935,852
719,7	927,224
720,1	919,252
720,5	913,51
721	899,967
721,4	890,11
721,8	882,367
722,3	881,195
722,7	876,881
723,2	867,738
723,6	861,71
724	851,881
724,5	845,224
724,9	839,967
725,3	827,367
725,8	819,395
726,2	813,195
726,7	806,938
727,1	808,481
727,5	801,795
728	791,367
728,4	789,052
728,8	777,995
729,3	767,595
729,7	764,881
730,1	756,024
730,6	751,538
731	749,024
731,5	745,567
731,9	747,367
732,3	750,881
732,8	744,338
733,2	740,338
733,6	736,11
734,1	732,624
734,5	727,51
734,9	720,595
735,4	716,395
735,8	708,052
736,3	705,167
736,7	701,652
737,1	695,11
737,6	693,824
738	690,052
738,4	683,452
738,9	684,881
739,3	679,424
739,7	677,138
740,2	675,881
740,6	671,424
741,1	666,967
741,5	663,938
741,9	660,395
742,4	656,567
742,8	651,881
743,2	649,395
743,7	641,567
744,1	644,624
744,5	641,995
745	632,024
745,4	630,938
745,8	623,938
746,3	624,138
746,7	621,795
747,2	609,881
747,6	602,738
748	604,252
748,5	597,252
748,9	596,91
749,3	583,052
749,8	582,481
750,2	580,024
750,6	583,281
751,1	576,31
751,5	573,424
751,9	567,424
752,4	563,852
752,8	557,367
753,3	553,138
753,7	540,081
754,1	532,967
754,6	531,738
755	530,052
755,4	533,71
755,9	531,224
756,3	530,338
756,7	532,938
757,2	532,167
757,6	525,51
758	521,967
758,5	514,338
758,9	507,424
759,3	500,681
759,8	495,195
760,2	490,595
760,6	487,824
761,1	482,367
761,5	484,71
761,9	485,338
762,4	483,71
762,8	479,395
763,3	477,71
763,7	472,481
764,1	467,938
764,6	460,281
765	454,795
765,4	451,767
765,9	449,652
766,3	452,91
766,7	451,424
767,2	452,481
767,6	450,595
768	449,138
768,5	449,424
768,9	451,824
769,3	440,31
769,8	441,652
770,2	434,738
770,6	429,967
771,1	425,281
771,5	421,481
771,9	417,452
772,4	418,795
772,8	413,052
773,2	412,624
773,7	406,452
774,1	404,31
774,5	397,224
775	387,452
775,4	381,938
775,8	377,71
776,3	376,938
776,7	376,281
777,1	372,424
777,6	372,738
778	373,624
778,4	377,167
778,9	375,424
779,3	368,852
779,7	367,71
780,2	368,595
780,6	361,481
781	357,224
781,5	350,881
781,9	354,595
782,3	353,167
782,8	352,424
783,2	345,024
783,6	350,91
784,1	351,738
784,5	351,11
784,9	342,538
785,4	341,481
785,8	338,367
786,2	335,367
786,7	326,538
787,1	323,938
787,5	319,424
788	317,795
788,4	314,367
788,8	306,395
789,3	307,652
789,7	308,138
790,1	305,767
790,6	308,395
791	306,138
791,4	308,281
791,9	309,71
792,3	307,71
792,7	303,967
793,2	300,652
793,6	296,367
794	292,224
794,5	287,281
794,9	287,281
795,3	287,31
795,8	285,452
796,2	285,167
796,6	284,538
797,1	280,624
797,5	279,481
797,9	279,567
798,4	274,138
798,8	272,081
799,2	268,452
799,7	264,252
800,1	267,881
800,5	260,452
801	255,652
801,4	256,71
801,8	254,395
802,2	255,91
802,7	257,195
803,1	255,081
803,5	253,081
804	251,595
804,4	248,167
804,8	250,567
805,3	246,738
805,7	242,71
806,1	239,395
806,6	241,452
807	239,51
807,4	238,91
807,9	237,795
808,3	239,452
808,7	236,195
809,2	238,11
809,6	237,995
810	232,567
810,4	228,938
810,9	225,595
811,3	221,11
811,7	220,167
812,2	217,567
812,6	212,11
813	209,195
813,5	207,195
813,9	202,567
814,3	201,51
814,8	200,652
815,2	196,995
815,6	194,738
816,1	196,624
816,5	199,51
816,9	198,595
817,3	198,681
817,8	195,595
818,2	191,681
818,6	194,881
819,1	197,11
819,5	193,91
819,9	194,11
820,4	189,195
820,8	184,567
821,2	184,338
821,7	182,767
822,1	174,081
822,5	175,51
822,9	172,281
823,4	175,881
823,8	177,538
824,2	180,767
824,7	179,481
825,1	181,595
825,5	175,681
826	178,281
826,4	169,852
826,8	169,71
827,3	165,681
827,7	166,138
828,1	165,11
828,5	165,938
829	162,367
829,4	162,681
829,8	161,738
830,3	159,652
830,7	155,51
831,1	158,567
831,6	156,481
832	157,195
832,4	154,281
832,8	149,681
833,3	152,452
833,7	148,71
834,1	144,624
834,6	142,71
835	140,652
835,4	140,367
835,8	142,567
836,3	137,452
836,7	141,852
837,1	138,852
837,6	138,652
838	132,481
838,4	134,795
838,9	132,795
839,3	135,31
839,7	136,395
840,1	132,424
840,6	134,052
841	136,167
841,4	136,31
841,9	133,424
842,3	126,967
842,7	117,938
843,1	123,852
843,6	121,967
844	124,852
844,4	120,081
844,9	117,852
845,3	119,624
845,7	121,081
846,2	116,424
846,6	110,995
847	108,31
847,4	104,852
847,9	103,481
848,3	105,881
848,7	104,195
849,2	106,51
849,6	104,91
850	107,767
850,4	110,624
850,9	113,681
851,3	110,367
851,7	109,995
852,2	103,481
852,6	104,738
853	98,052
853,4	94,138
853,9	92,167
854,3	90,938
854,7	93,967
855,2	99,91
855,6	98,852
856	97,71
856,4	103,681
856,9	107,652
857,3	104,395
857,7	101,452
858,2	95,681
858,6	97,081
859	93,881
859,4	93,652
859,9	91,852
860,3	95,452
860,7	93,338
861,1	95,681
861,6	99,167
862	103,167
862,4	98,967
862,9	97,338
863,3	91,738
863,7	90,624
864,1	86,481
864,6	82,567
865	83,824
865,4	82,881
865,9	82,024
866,3	87,595
866,7	90,367
867,1	90,424
867,6	93,167
868	96,538
868,4	96,738
868,8	96,938
869,3	94,452
869,7	93,252
870,1	95,995
870,6	90,024
871	139,967
871,4	135,595
871,8	134,224
872,3	131,51
872,7	133,081
873,1	131,652
873,5	130,224
874	70,367
874,4	72,167
874,8	75,281
875,3	73,024
875,7	68,481
876,1	66,852
876,5	69,024
877	72,31
877,4	71,795
877,8	70,052
878,2	70,395
878,7	72,967
879,1	74,31
879,5	68,024
879,9	66,938
880,4	70,995
880,8	69,11
881,2	69,052
881,7	67,024
882,1	68,11
882,5	75,881
882,9	72,252
883,4	67,624
883,8	63,652
884,2	60,281
884,6	59,681
885,1	56,852
885,5	53,938
885,9	59,081
886,3	60,795
886,8	58,852
887,2	59,738
887,6	56,824
888	57,452
888,5	56,624
888,9	51,224
889,3	49,052
889,8	51,51
890,2	48,91
890,6	48,195
891	45,024
891,5	43,624
891,9	44,31
892,3	45,138
892,7	46,452
893,2	51,881
893,6	53,224
894	57,024
894,4	60,224
894,9	62,681
895,3	60,11
895,7	55,538
896,1	55,024
896,6	58,31
897	55,567
897,4	54,795
897,8	52,738
898,3	56,767
898,7	56,91
899,1	55,481
899,5	54,538
900	53,538
900,4	56,624
900,8	54,481
901,2	49,91
901,7	51,395
902,1	52,938
902,5	48,681
902,9	46,31
903,4	41,481
903,8	43,738
904,2	41,51
904,6	43,195
905,1	44,595
905,5	47,167
905,9	51,281
906,3	48,538
906,8	48,938
907,2	49,395
907,6	51,395
908	43,938
908,5	43,31
908,9	45,024
909,3	43,852
909,7	42,338
910,2	47,795
910,6	43,31
911	47,138
911,4	47,024
911,9	40,938
912,3	38,738
912,7	34,995
913,1	29,71
913,6	26,138
914	27,91
914,4	23,881
914,8	23,424
915,3	26,624
915,7	33,967
916,1	34,652
916,5	39,538
916,9	35,567
917,4	38,51
917,8	37,995
918,2	39,595
918,6	37,567
919,1	38,452
919,5	37,252
919,9	38,795
920,3	37,967
920,8	39,824
921,2	36,395
921,6	37,995
922	37,481
922,5	37,938
922,9	36,138
923,3	38,681
923,7	41,081
924,2	42,367
924,6	37,31
925	39,395
925,4	40,224
925,8	40,967
926,3	41,681
926,7	39,167
927,1	41,338
927,5	43,567
928	39,252
928,4	39,652
928,8	40,881
929,2	36,195
929,7	37,452
930,1	34,081
930,5	36,567
930,9	39,081
931,3	36,481
931,8	33,31
932,2	36,195
932,6	34,081
933	34,481
933,5	31,852
933,9	29,252
934,3	28,281
934,7	27,481
935,2	30,567
935,6	28,224
936	21,881
936,4	18,595
936,8	19,795
937,3	21,081
937,7	24,224
938,1	13,852
938,5	13,738
939	21,31
939,4	21,195
939,8	20,738
940,2	22,167
940,6	19,338
941,1	23,738
941,5	26,824
941,9	33,338
942,3	34,567
942,8	36,595
943,2	37,652
943,6	41,281
944	41,967
944,4	40,795
944,9	30,51
945,3	28,31
945,7	29,252
946,1	25,052
946,6	23,367
947	22,224
947,4	21,31
947,8	24,738
948,2	26,624
948,7	20,595
949,1	23,081
949,5	21,567
949,9	20,424
950,3	21,081
950,8	19,824
951,2	21,624
951,6	26,824
952	24,424
952,5	21,224
952,9	20,71
953,3	19,624
953,7	21,681
954,1	20,167
954,6	17,081
955	17,795
955,4	25,167
955,8	30,252
956,2	35,281
956,7	33,881
957,1	29,167
957,5	28,31
957,9	29,081
958,3	23,167
958,8	21,338
959,2	19,424
959,6	17,824
960	24,538
960,5	25,967
960,9	27,51
961,3	27,71
961,7	26,424
962,1	26,281
962,6	27,31
963	26,052
963,4	27,652
963,8	25,852
964,2	28,138
964,7	27,652
965,1	19,424
965,5	18,767
965,9	18,51
966,3	14,338
966,8	11,624
967,2	8,195
967,6	10,51
968	13,767
968,4	15,767
968,9	16,995
969,3	16,824
969,7	15,452
970,1	18,567
970,5	18,167
971	18,481
971,4	16,452
971,8	10,367
972,2	15,081
972,6	19,681
973,1	16,795
973,5	16,338
973,9	13,538
974,3	15,281
974,7	15,252
975,2	15,281
975,6	11,167
976	11,11
976,4	10,624
976,8	13,567
977,3	10,938
977,7	15,195
978,1	14,652
978,5	11,91
978,9	12,081
979,4	11,481
979,8	12,052
980,2	10,224
980,6	10,538
981	8,967
981,5	10,91
981,9	11,652
982,3	10,281
982,7	8,395
983,1	5,024
983,6	5,91
984	1,624
984,4	3,195
984,8	6,224
985,2	7,224
985,6	7,795
986,1	10,967
986,5	5,51
986,9	10,452
987,3	13,967
987,7	12,852
988,2	12,795
988,6	17,624
989	16,052
989,4	23,138
989,8	23,11
990,3	19,11
990,7	23,252
991,1	26,795
991,5	27,024
991,9	28,538
992,3	23,167
992,8	21,881
993,2	23,367
993,6	15,967
994	11,195
994,4	13,252
994,9	12,51
995,3	19,367
995,7	14,995
996,1	14,967
996,5	16,538
996,9	12,481
997,4	6,767
997,8	12,452
998,2	3,881
998,6	13,538
999	15,71
999,5	14,91
999,9	21,424
1000,3	25,081
1000,7	23,681
1001,1	22,452
1001,5	20,052
1002	17,452
1002,4	20,767
1002,8	18,51
1003,2	17,281
1003,6	18,824
1004	23,138
1004,5	19,024
1004,9	21,195
1005,3	21,938
1005,7	19,938
1006,1	23,252
1006,6	16,652
1007	14,052
1007,4	10,367
1007,8	12,367
1008,2	11,995
1008,6	17,11
1009,1	12,281
1009,5	19,138
1009,9	22,538
1010,3	25,51
1010,7	25,367
1011,1	25,967
1011,6	24,852
1012	27,51
1012,4	32,281
1012,8	30,281
1013,2	34,91
1013,6	31,967
1014,1	27,852
1014,5	26,081
1014,9	22,252
1015,3	14,567
1015,7	15,367
1016,1	10,11
1016,6	6,281
1017	7,681
1017,4	5,71
1017,8	5,51
1018,2	5,138
1018,6	2,167
1019,1	6,595
1019,5	9,024
1019,9	11,167
1020,3	14,767
1020,7	16,052
1021,1	17,567
1021,6	18,681
1022	14,281
1022,4	17,881
1022,8	13,452
1023,2	11,31
1023,6	7,538
1024,1	3,024
1024,5	3,795
1024,9	10,71
1025,3	11,081
1025,7	15,395
1026,1	20,11
1026,6	29,224
1027	33,138
1027,4	38,624
1027,8	28,595
1028,2	18,595
1028,6	20,538
1029	16,252
1029,5	14,824
1029,9	15,824
1030,3	12,538
1030,7	19,852
1031,1	27,224
1031,5	25,881
1032	24,567
1032,4	23,338
1032,8	24,338
1033,2	25,738
1033,6	23,71
1034	24,595
1034,4	25,338
1034,9	30,224
1035,3	28,767
1035,7	26,938
1036,1	26,995
1036,5	31,481
1036,9	33,567
1037,4	35,481
1037,8	33,681
1038,2	35,395
1038,6	33,452
1039	31,538
1039,4	25,081
1039,8	20,195
1040,3	19,824
1040,7	18,652
1041,1	13,367
1041,5	21,11
1041,9	20,11
1042,3	22,195
1042,7	23,138
1043,2	16,538
1043,6	22,167
1044	27,567
1044,4	19,967
1044,8	22,338
1045,2	26,424
1045,6	28,11
1046,1	27,824
1046,5	26,452
1046,9	26,624
1047,3	31,024
1047,7	31,624
1048,1	26,767
1048,5	28,795
1049	34,652
1049,4	34,024
1049,8	28,624
1050,2	25,167
1050,6	21,824
1051	21,31
1051,4	17,481
1051,9	12,995
1052,3	13,824
1052,7	17,938
1053,1	20,795
1053,5	19,738
1053,9	24,195
1054,3	16,595
1054,8	19,281
1055,2	12,91
1055,6	14,195
1056	9,738
1056,4	16,081
1056,8	14,395
1057,2	20,91
1057,6	24,967
1058,1	29,767
1058,5	25,51
1058,9	28,31
1059,3	28,967
1059,7	26,195
1060,1	29,081
1060,5	23,452
1061	17,681
1061,4	22,167
1061,8	22,338
1062,2	16,624
1062,6	21,081
1063	22,681
1063,4	23,167
1063,8	26,424
1064,3	25,395
1064,7	25,881
1065,1	29,395
1065,5	29,51
1065,9	27,167
1066,3	27,624
1066,7	25,338
1067,1	21,481
1067,6	16,824
1068	17,338
1068,4	14,195
1068,8	7,967
1069,2	8,081
1069,6	9,71
1070	13,281
1070,4	18,681
1070,9	16,395
1071,3	19,224
1071,7	25,824
1072,1	23,195
1072,5	24,424
1072,9	19,824
1073,3	22,167
1073,7	27,338
1074,2	26,681
1074,6	23,71
1075	25,052
1075,4	24,138
1075,8	25,767
1076,2	20,852
1076,6	14,024
1077	11,052
1077,5	13,424
1077,9	9,538
1078,3	8,881
1078,7	8,481
1079,1	7,31
1079,5	7,11
1079,9	7,338
1080,3	6,024
1080,7	10,367
1081,2	13,51
1081,6	12,767
1082	15,395
1082,4	12,624
1082,8	15,938
1083,2	17,738
1083,6	16,481
1084	15,395
1084,5	20,795
1084,9	14,738
1085,3	16,881
1085,7	13,024
1086,1	12,024
1086,5	11,338
1086,9	7,252
1087,3	3,281
1087,7	6,11
1088,2	11,51
1088,6	10,795
1089	9,367
1089,4	12,767
1089,8	15,852
1090,2	11,681
1090,6	14,538
1091	13,195
1091,4	14,081
1091,9	18,281
1092,3	17,967
1092,7	19,538
1093,1	20,938
1093,5	19,481
1093,9	17,738
1094,3	17,567
1094,7	14,881
1095,1	14,595
1095,5	9,652
1096	11,024
1096,4	10,224
1096,8	9,138
1097,2	10,795
1097,6	11,881
1098	8,938
1098,4	9,738
1098,8	8,91
1099,2	7,367
1099,6	5,738
1100,1	3,967
1100,5	4,138
1100,9	5,738
1101,3	4,51
1101,7	4,31
1102,1	10,252
1102,5	6,852
1102,9	4,738
1103,3	4,938
1103,7	5,024
1104,2	8,138
1104,6	14,824
1105	13,881
1105,4	19,995
1105,8	20,681
1106,2	16,767
1106,6	14,738
1107	12,938
1107,4	8,467
1107,8	4,367
1108,3	-0,183
