Data from Subt2_00088.txt Node
Date: Mon Aug 28 13:33:41 MSK 2023
User: vat
Spectrometer: MAYP114033
Trigger mode: 0
Integration Time (sec): 1,000000E0
Scans to average: 5
Electric dark correction enabled: true
Nonlinearity correction enabled: false
Boxcar width: 3
XAxis mode: Wavelengths
Number of Pixels in Spectrum: 2068
>>>>>Begin Spectral Data<<<<<
199,4	-0,017
199,9	-0,127
200,4	-1,2
200,8	-1,11
201,3	2,69
201,8	6,976
202,2	7,89
202,7	7,719
203,2	7,948
203,6	10,862
204,1	10,576
204,6	6,319
205	2,748
205,5	3,148
206	3,919
206,4	3,49
206,9	3,776
207,4	6,605
207,8	7,919
208,3	7,29
208,8	8,805
209,2	10,919
209,7	12,462
210,2	9,605
210,6	9,233
211,1	12,462
211,5	12,233
212	11,919
212,5	10,348
212,9	9,176
213,4	13,376
213,9	10,833
214,3	12,862
214,8	14,005
215,3	15,776
215,7	16,976
216,2	17,433
216,7	20,548
217,1	17,748
217,6	14,033
218,1	17,062
218,5	17,29
219	16,405
219,5	23,062
219,9	15,719
220,4	23,519
220,9	20,148
221,3	17,433
221,8	14,862
222,3	16,633
222,7	16,662
223,2	14,205
223,6	8,29
224,1	10,89
224,6	11,262
225	11,862
225,5	10,205
226	7,348
226,4	18,005
226,9	19,719
227,4	27,49
227,8	25,262
228,3	23,062
228,8	23,148
229,2	18,919
229,7	12,462
230,2	15,376
230,6	9,633
231,1	10,576
231,5	13,09
232	14,09
232,5	12,89
232,9	16,805
233,4	13,89
233,9	10,405
234,3	14,576
234,8	14,719
235,3	16,348
235,7	16,119
236,2	13,062
236,7	12,062
237,1	17,633
237,6	16,233
238,1	15,176
238,5	12,062
239	14,205
239,4	18,348
239,9	19,833
240,4	15,862
240,8	16,805
241,3	17,033
241,8	16,519
242,2	15,205
242,7	10,49
243,2	11,605
243,6	16,548
244,1	12,462
244,6	1,633
245	4,405
245,5	6,062
245,9	10,319
246,4	8,833
246,9	5,976
247,3	7,233
247,8	15,69
248,3	16,976
248,7	15,376
249,2	11,233
249,7	15,348
250,1	9,862
250,6	11,548
251	11,405
251,5	8,519
252	8,319
252,4	7,662
252,9	8,033
253,4	12,662
253,8	9,89
254,3	13,948
254,8	15,948
255,2	18,519
255,7	19,548
256,1	15,862
256,6	13,148
257,1	15,89
257,5	12,29
258	7,348
258,5	4,605
258,9	-1,31
259,4	0,519
259,9	-2,452
260,3	-4,795
260,8	-2,31
261,2	3,09
261,7	9,119
262,2	14,862
262,6	16,148
263,1	20,148
263,6	15,748
264	14,348
264,5	13,576
264,9	13,605
265,4	11,376
265,9	8,919
266,3	8,376
266,8	15,176
267,3	17,662
267,7	17,148
268,2	11,748
268,7	14,319
269,1	9,776
269,6	7,862
270	3,09
270,5	2,948
271	-3,281
271,4	-4,481
271,9	-8,424
272,4	-4,252
272,8	-1,51
273,3	0,033
273,7	-0,51
274,2	4,519
274,7	9,348
275,1	13,233
275,6	16,69
276,1	16,433
276,5	20,633
277	21,948
277,4	20,662
277,9	17,062
278,4	15,433
278,8	8,29
279,3	9,919
279,8	8,805
280,2	7,519
280,7	8,262
281,1	7,69
281,6	11,519
282,1	18,576
282,5	18,919
283	18,405
283,4	21,405
283,9	21,405
284,4	22,262
284,8	19,09
285,3	14,405
285,8	12,205
286,2	11,976
286,7	5,519
287,1	2,805
287,6	2,776
288,1	4,319
288,5	6,119
289	2,719
289,5	0,548
289,9	3,119
290,4	6,319
290,8	9,833
291,3	9,005
291,8	7,119
292,2	15,605
292,7	15,348
293,1	16,919
293,6	16,119
294,1	14,119
294,5	12,205
295	13,319
295,5	11,576
295,9	11,805
296,4	8,548
296,8	6,576
297,3	6,776
297,8	12,233
298,2	14,033
298,7	11,719
299,1	10,633
299,6	12,605
300,1	17,69
300,5	15,548
301	13,89
301,5	10,719
301,9	8,548
302,4	11,119
302,8	12,233
303,3	15,262
303,8	18,633
304,2	18,319
304,7	19,605
305,1	16,948
305,6	13,948
306,1	11,462
306,5	3,49
307	-2,138
307,4	-8,31
307,9	-7,967
308,4	-5,367
308,8	-0,595
309,3	1,862
309,8	2,376
310,2	5,376
310,7	8,862
311,1	6,776
311,6	7,376
312,1	3,233
312,5	0,062
313	3,376
313,4	8,09
313,9	8,005
314,4	6,833
314,8	10,233
315,3	16,29
315,7	19,548
316,2	12,919
316,7	6,462
317,1	9,319
317,6	15,005
318	14,348
318,5	6,576
319	5,633
319,4	11,005
319,9	11,976
320,3	8,119
320,8	2,748
321,3	-1,71
321,7	3,376
322,2	1,233
322,6	6,319
323,1	2,348
323,6	7,148
324	6,033
324,5	9,633
324,9	12,719
325,4	15,205
325,9	13,662
326,3	19,548
326,8	17,319
327,2	20,862
327,7	20,233
328,2	20,033
328,6	20,119
329,1	14,605
329,5	16,662
330	15,205
330,5	21,433
330,9	19,976
331,4	11,833
331,8	9,519
332,3	12,176
332,8	13,062
333,2	13,976
333,7	5,576
334,1	3,548
334,6	7,319
335,1	9,919
335,5	7,948
336	6,405
336,4	9,633
336,9	13,119
337,4	16,719
337,8	19,148
338,3	16,719
338,7	15,033
339,2	9,833
339,7	3,633
340,1	1,89
340,6	-0,967
341	-2,338
341,5	0,119
342	3,576
342,4	2,976
342,9	8,148
343,3	13,09
343,8	15,005
344,2	16,719
344,7	14,348
345,2	13,09
345,6	19,033
346,1	17,805
346,5	15,576
347	14,319
347,5	11,462
347,9	9,719
348,4	10,805
348,8	8,319
349,3	5,119
349,8	3,805
350,2	6,576
350,7	10,033
351,1	14,976
351,6	17,633
352	19,262
352,5	29,519
353	35,548
353,4	39,09
353,9	46,833
354,3	58,005
354,8	61,49
355,3	78,719
355,7	89,176
356,2	103,09
356,6	123,433
357,1	142,633
357,5	164,176
358	198,69
358,5	223,405
358,9	260,233
359,4	303,376
359,8	351,205
360,3	399,519
360,8	453,633
361,2	514,662
361,7	589,576
362,1	661,519
362,6	744,348
363	833,119
363,5	932,005
364	1035,633
364,4	1140,033
364,9	1243,29
365,3	1352,633
365,8	1456,176
366,3	1548,119
366,7	1626,033
367,2	1699,519
367,6	1760,033
368,1	1801,119
368,5	1830,176
369	1842,976
369,5	1843,148
369,9	1835,205
370,4	1806,833
370,8	1763,519
371,3	1708,119
371,7	1647,719
372,2	1575,89
372,7	1503,748
373,1	1427,948
373,6	1348,119
374	1262,948
374,5	1188,462
374,9	1104,805
375,4	1025,205
375,9	953,719
376,3	877,119
376,8	803,09
377,2	744,862
377,7	688,405
378,2	633,69
378,6	581,09
379,1	525,376
379,5	480,262
380	445,262
380,4	408,662
380,9	373,462
381,4	341,433
381,8	318,833
382,3	297,976
382,7	279,576
383,2	251,29
383,6	237,662
384,1	225,805
384,6	212,09
385	201,376
385,5	190,033
385,9	178,405
386,4	179,776
386,8	163,233
387,3	147,576
387,7	138,69
388,2	128,09
388,7	116,062
389,1	107,69
389,6	95,748
390	89,976
390,5	85,462
390,9	79,748
391,4	72,433
391,9	69,433
392,3	70,605
392,8	69,119
393,2	70,148
393,7	67,462
394,1	65,433
394,6	67,433
395,1	69,948
395,5	65,119
396	59,319
396,4	53,262
396,9	52,662
397,3	52,033
397,8	44,748
398,2	40,548
398,7	36,148
399,2	37,519
399,6	41,662
400,1	37,833
400,5	38,119
401	43,805
401,4	38,633
401,9	37,69
402,4	38,919
402,8	40,633
403,3	46,805
403,7	47,205
404,2	42,633
404,6	47,148
405,1	53,69
405,5	53,976
406	47,49
406,5	42,719
406,9	46,29
407,4	46,748
407,8	44,576
408,3	39,948
408,7	39,605
409,2	44,662
409,6	48,062
410,1	48,919
410,6	51,205
411	56,148
411,5	55,662
411,9	54,348
412,4	56,405
412,8	56,462
413,3	52,633
413,7	55,776
414,2	55,576
414,7	57,633
415,1	66,833
415,6	67,462
416	71,519
416,5	84,319
416,9	88,748
417,4	94,29
417,8	103,519
418,3	97,605
418,8	100,576
419,2	101,833
419,7	95,148
420,1	91,719
420,6	97,69
421	98,948
421,5	107,89
421,9	109,433
422,4	111,748
422,8	114,49
423,3	118,233
423,8	115,033
424,2	115,062
424,7	113,833
425,1	108,433
425,6	109,205
426	111,233
426,5	113,605
426,9	110,519
427,4	113,576
427,9	116,09
428,3	121,948
428,8	120,719
429,2	124,776
429,7	128,348
430,1	131,49
430,6	128,776
431	127,005
431,5	128,776
431,9	130,662
432,4	124,662
432,8	125,09
433,3	127,548
433,8	133,605
434,2	138,576
434,7	141,176
435,1	151,49
435,6	155,119
436	158,976
436,5	166,376
436,9	168,005
437,4	175,119
437,8	183,033
438,3	189,833
438,8	203,205
439,2	212,462
439,7	222,805
440,1	233,319
440,6	238,833
441	247,862
441,5	252,833
441,9	258,776
442,4	269,29
442,8	277,776
443,3	288,69
443,7	296,976
444,2	309,976
444,7	321,262
445,1	335,633
445,6	344,005
446	357,033
446,5	374,748
446,9	393,605
447,4	412,348
447,8	430,233
448,3	451,519
448,7	470,433
449,2	488,748
449,6	504,062
450,1	524,348
450,6	543,719
451	565,405
451,5	589,09
451,9	612,862
452,4	632,176
452,8	654,005
453,3	673,948
453,7	696,005
454,2	713,976
454,6	733,033
455,1	757,719
455,5	783,205
456	812,033
456,4	838,548
456,9	866,919
457,3	899,833
457,8	924,033
458,3	953,49
458,7	990,49
459,2	1021,205
459,6	1054,948
460,1	1086,205
460,5	1118,748
461	1155,976
461,4	1188,833
461,9	1213,519
462,3	1243,119
462,8	1277,89
463,2	1311,29
463,7	1349,062
464,1	1382,519
464,6	1416,405
465	1453,376
465,5	1491,548
466	1535,405
466,4	1577,233
466,9	1614,748
467,3	1657,49
467,8	1703,09
468,2	1745,805
468,7	1792,033
469,1	1822,976
469,6	1859,719
470	1898,862
470,5	1938,748
470,9	1975,862
471,4	2019,119
471,8	2059,662
472,3	2100,548
472,7	2142,005
473,2	2186,062
473,6	2225,005
474,1	2266,09
474,5	2303,519
475	2342,49
475,4	2388,062
475,9	2424,119
476,4	2461,548
476,8	2508,062
477,3	2543,148
477,7	2586,948
478,2	2627,433
478,6	2662,976
479,1	2706,662
479,5	2748,862
480	2781,176
480,4	2826,033
480,9	2852,119
481,3	2884,148
481,8	2920,805
482,2	2953,89
482,7	2987,69
483,1	3017,233
483,6	3044,09
484	3082,776
484,5	3117,519
484,9	3148,719
485,4	3182,605
485,8	3210,862
486,3	3238,519
486,7	3269,605
487,2	3300,633
487,6	3319,319
488,1	3347,262
488,5	3365,89
489	3394,233
489,4	3429,005
489,9	3450,09
490,4	3468,719
490,8	3494,49
491,3	3517,205
491,7	3532,633
492,2	3545,433
492,6	3561,405
493,1	3583,776
493,5	3600,062
494	3622,605
494,4	3631,29
494,9	3659,405
495,3	3674,976
495,8	3683,405
496,2	3697,748
496,7	3714,919
497,1	3721,033
497,6	3746,49
498	3753,662
498,5	3772,148
498,9	3791,176
499,4	3800,833
499,8	3812,605
500,3	3833,69
500,7	3834,576
501,2	3852,176
501,6	3862,262
502,1	3870,948
502,5	3885,805
503	3898,376
503,4	3902,262
503,9	3917,49
504,3	3925,176
504,8	3931,519
505,2	3943,033
505,7	3951,033
506,1	3953,29
506,6	3951,862
507	3963,005
507,5	3965,805
507,9	3972,319
508,4	3980,69
508,8	3987,148
509,3	4002,09
509,7	4018,176
510,2	4019,833
510,6	4024,49
511,1	4033,119
511,5	4036,319
512	4040,405
512,4	4046,205
512,9	4052,29
513,3	4058,119
513,8	4077,176
514,2	4081,833
514,7	4089,919
515,1	4091,462
515,6	4086,719
516	4087,119
516,5	4091,376
516,9	4084,462
517,4	4091,319
517,8	4099,69
518,3	4109,976
518,7	4123,405
519,2	4135,89
519,6	4140,033
520,1	4147,776
520,5	4145,662
521	4141,09
521,4	4141,576
521,9	4144,319
522,3	4145,205
522,8	4150,005
523,2	4157,776
523,7	4173,205
524,1	4178,205
524,6	4186,262
525	4194,776
525,5	4204,005
525,9	4211,69
526,4	4219,605
526,8	4220,605
527,3	4235,976
527,7	4245,005
528,2	4256,776
528,6	4266,062
529,1	4278,005
529,5	4282,662
530	4293,376
530,4	4297,405
530,9	4310,805
531,3	4316,033
531,8	4324,776
532,2	4328,405
532,6	4338,976
533,1	4342,576
533,5	4347,748
534	4350,233
534,4	4346,976
534,9	4356,748
535,3	4370,119
535,8	4379,748
536,2	4390,119
536,7	4407,376
537,1	4419,205
537,6	4435,319
538	4442,833
538,5	4454,09
538,9	4458,948
539,4	4468,919
539,8	4477,548
540,3	4487,462
540,7	4497,919
541,2	4502,376
541,6	4504,433
542,1	4516,833
542,5	4525,49
543	4525,49
543,4	4533,433
543,9	4545,976
544,3	4562,433
544,8	4574,119
545,2	4583,062
545,7	4597,233
546,1	4609,862
546,5	4611,776
547	4626,033
547,4	4628,805
547,9	4639,748
548,3	4646,148
548,8	4645,49
549,2	4656,033
549,7	4665,719
550,1	4665,119
550,6	4681,119
551	4687,433
551,5	4688,976
551,9	4699,405
552,4	4708,948
552,8	4721,748
553,3	4732,89
553,7	4734,662
554,2	4745,262
554,6	4768,862
555,1	4784,262
555,5	4793,176
555,9	4799,719
556,4	4807,719
556,8	4823,89
557,3	4831,348
557,7	4831,719
558,2	4835,719
558,6	4836,176
559,1	4844,976
559,5	4855,262
560	4853,919
560,4	4861,548
560,9	4870,005
561,3	4877,462
561,8	4886,948
562,2	4889,433
562,7	4888,176
563,1	4895,005
563,6	4897,719
564	4902,919
564,4	4908,805
564,9	4915,29
565,3	4921,319
565,8	4932,462
566,2	4932,633
566,7	4938,205
567,1	4937,376
567,6	4940,605
568	4940,833
568,5	4942,205
568,9	4942,948
569,4	4956,033
569,8	4956,319
570,3	4958,633
570,7	4960,319
571,1	4961,462
571,6	4968,405
572	4966,976
572,5	4956,919
572,9	4954,719
573,4	4949,176
573,8	4950,548
574,3	4951,805
574,7	4950,976
575,2	4950,033
575,6	4959,605
576,1	4961,89
576,5	4964,519
576,9	4963,262
577,4	4962,348
577,8	4957,919
578,3	4952,576
578,7	4936,748
579,2	4923,29
579,6	4927,376
580,1	4923,062
580,5	4920,376
581	4918,176
581,4	4920,405
581,9	4914,976
582,3	4914,119
582,7	4898,69
583,2	4891,805
583,6	4876,062
584,1	4860,148
584,5	4846,433
585	4847,49
585,4	4843,205
585,9	4836,548
586,3	4820,519
586,8	4817,862
587,2	4817,376
587,6	4812,833
588,1	4796,919
588,5	4790,405
589	4787,062
589,4	4778,519
589,9	4770,319
590,3	4761,519
590,8	4745,405
591,2	4742,976
591,7	4733,348
592,1	4724,89
592,5	4722,976
593	4715,633
593,4	4705,919
593,9	4703,548
594,3	4702,89
594,8	4697,919
595,2	4693,89
595,7	4680,976
596,1	4669,09
596,6	4659,005
597	4655,233
597,4	4641,776
597,9	4629,948
598,3	4615,319
598,8	4613,49
599,2	4615,005
599,7	4621,005
600,1	4611,862
600,6	4598,09
601	4589,176
601,4	4581,405
601,9	4571,433
602,3	4554,262
602,8	4535,176
603,2	4521,519
603,7	4510,948
604,1	4499,948
604,6	4482,605
605	4476,205
605,4	4463,976
605,9	4448,862
606,3	4440,29
606,8	4433,062
607,2	4424,805
607,7	4415,205
608,1	4395,49
608,6	4388,148
609	4372,633
609,4	4354,348
609,9	4339,605
610,3	4320,833
610,8	4315,89
611,2	4304,805
611,7	4291,148
612,1	4278,976
612,6	4263,319
613	4245,09
613,4	4233,976
613,9	4213,862
614,3	4194,49
614,8	4175,09
615,2	4158,605
615,7	4150,519
616,1	4137,09
616,6	4122,69
617	4105,09
617,4	4092,262
617,9	4083,205
618,3	4068,348
618,8	4050,662
619,2	4037,633
619,7	4017,948
620,1	4000,576
620,5	3983,862
621	3956,205
621,4	3941,548
621,9	3924,605
622,3	3901,29
622,8	3884,205
623,2	3863,176
623,6	3840,89
624,1	3831,176
624,5	3811,348
625	3795,005
625,4	3781,719
625,9	3764,09
626,3	3757,49
626,8	3742,576
627,2	3729,09
627,6	3712,148
628,1	3689,376
628,5	3665,462
629	3645,862
629,4	3624,462
629,9	3610,462
630,3	3587,233
630,7	3567,205
631,2	3550,233
631,6	3537,09
632,1	3519,776
632,5	3496,548
633	3472,319
633,4	3452,976
633,8	3440,262
634,3	3420,862
634,7	3411,376
635,2	3397,548
635,6	3383,005
636,1	3366,262
636,5	3343,262
636,9	3324,948
637,4	3312,833
637,8	3286,033
638,3	3264,576
638,7	3246,89
639,2	3229,576
639,6	3220,805
640	3200,49
640,5	3177,862
640,9	3162,49
641,4	3147,89
641,8	3136,633
642,2	3125,262
642,7	3109,662
643,1	3098,605
643,6	3091,662
644	3074,748
644,5	3062,805
644,9	3046,462
645,3	3033,005
645,8	3014,948
646,2	2994,033
646,7	2972,69
647,1	2961,348
647,6	2942,89
648	2925,976
648,4	2909,033
648,9	2891,262
649,3	2875,148
649,8	2858,69
650,2	2842,833
650,6	2831,633
651,1	2822,919
651,5	2804,833
652	2790,062
652,4	2782,548
652,9	2771,119
653,3	2751,433
653,7	2737,633
654,2	2716,119
654,6	2698,462
655,1	2685,49
655,5	2664,89
655,9	2649,462
656,4	2638,319
656,8	2622,119
657,3	2604,348
657,7	2593,548
658,2	2579,919
658,6	2568,633
659	2551,662
659,5	2533,69
659,9	2513,89
660,4	2502,062
660,8	2489,062
661,2	2471,576
661,7	2449,833
662,1	2436,49
662,6	2427,576
663	2411,776
663,4	2397,748
663,9	2380,776
664,3	2366,748
664,8	2355,633
665,2	2340,576
665,6	2322,09
666,1	2312,919
666,5	2293,119
667	2280,862
667,4	2263,062
667,9	2254,805
668,3	2239,062
668,7	2227,405
669,2	2206,89
669,6	2195,862
670,1	2177,062
670,5	2166,005
670,9	2143,748
671,4	2129,662
671,8	2112,605
672,3	2100,633
672,7	2093,405
673,1	2082,976
673,6	2073,805
674	2062,148
674,5	2050,49
674,9	2038,833
675,3	2028,605
675,8	2007,119
676,2	1992,576
676,7	1979,976
677,1	1968,719
677,5	1953,005
678	1941,605
678,4	1925,033
678,9	1917,805
679,3	1908,89
679,7	1892,833
680,2	1880,948
680,6	1875,919
681,1	1861,348
681,5	1855,862
681,9	1844,09
682,4	1829,776
682,8	1820,033
683,3	1813,176
683,7	1800,033
684,1	1790,976
684,6	1770,119
685	1753,148
685,5	1741,69
685,9	1728,548
686,3	1711,376
686,8	1698,29
687,2	1687,119
687,7	1679,09
688,1	1669,405
688,5	1661,319
689	1649,89
689,4	1642,862
689,9	1635,748
690,3	1623,605
690,7	1613,033
691,2	1596,748
691,6	1584,405
692	1574,919
692,5	1562,805
692,9	1544,033
693,4	1531,948
693,8	1523,89
694,2	1518,319
694,7	1508,576
695,1	1501,605
695,6	1488,233
696	1483,919
696,4	1478,548
696,9	1471,205
697,3	1462,919
697,8	1450,233
698,2	1436,805
698,6	1428,29
699,1	1415,805
699,5	1402,205
699,9	1387,49
700,4	1380,605
700,8	1372,548
701,3	1361,233
701,7	1353,462
702,1	1346,862
702,6	1337,662
703	1330,776
703,5	1314,548
703,9	1302,605
704,3	1289,748
704,8	1281,148
705,2	1269,376
705,6	1261,148
706,1	1249,662
706,5	1246,948
707	1243,376
707,4	1244,148
707,8	1230,405
708,3	1224,89
708,7	1214,176
709,2	1212,262
709,6	1203,576
710	1193,948
710,5	1178,805
710,9	1180,205
711,3	1165,576
711,8	1160,776
712,2	1149,119
712,7	1139,576
713,1	1130,662
713,5	1128,376
714	1115,748
714,4	1109,948
714,8	1101,919
715,3	1097,519
715,7	1091,205
716,2	1085,976
716,6	1075,176
717	1065,833
717,5	1058,976
717,9	1053,719
718,3	1040,205
718,8	1036,49
719,2	1027,09
719,7	1022,948
720,1	1016,376
720,5	1009,662
721	993,719
721,4	987,376
721,8	974,633
722,3	968,348
722,7	956,719
723,2	950,605
723,6	946,033
724	942,862
724,5	934,205
724,9	931,948
725,3	922,519
725,8	918,176
726,2	906,976
726,7	899,805
727,1	892,833
727,5	888,176
728	875,833
728,4	872,519
728,8	866,548
729,3	858,29
729,7	856,119
730,1	847,976
730,6	842,062
731	842,062
731,5	832,033
731,9	829,262
732,3	831,148
732,8	821,319
733,2	817,119
733,6	815,033
734,1	808,862
734,5	806,576
734,9	793,776
735,4	787,29
735,8	781,605
736,3	779,919
736,7	774,576
737,1	766,748
737,6	763,662
738	767,576
738,4	764,548
738,9	763,005
739,3	756,833
739,7	751,319
740,2	748,033
740,6	741,205
741,1	730,519
741,5	722,633
741,9	717,319
742,4	713,09
742,8	707,033
743,2	705,519
743,7	700,662
744,1	702,119
744,5	704,833
745	699,748
745,4	697,005
745,8	695,548
746,3	690,576
746,7	684,633
747,2	677,348
747,6	665,49
748	659,919
748,5	654,176
748,9	647,119
749,3	636,376
749,8	632,919
750,2	627,376
750,6	626,633
751,1	625,405
751,5	620,662
751,9	617,633
752,4	612,805
752,8	607,49
753,3	599,976
753,7	588,576
754,1	577,29
754,6	575,633
755	570,262
755,4	573,262
755,9	570,662
756,3	573,405
756,7	574,805
757,2	573,29
757,6	566,405
758	562,548
758,5	557,49
758,9	552,319
759,3	544,033
759,8	538,548
760,2	532,605
760,6	530,433
761,1	523,005
761,5	521,233
761,9	520,348
762,4	514,233
762,8	508,89
763,3	506,005
763,7	497,548
764,1	500,148
764,6	492,605
765	483,805
765,4	483,176
765,9	482,69
766,3	478,862
766,7	481,29
767,2	475,319
767,6	471,633
768	471,805
768,5	470,89
768,9	467,005
769,3	464,319
769,8	460,833
770,2	458,976
770,6	459,948
771,1	460,319
771,5	456,548
771,9	458,262
772,4	455,976
772,8	453,862
773,2	447,205
773,7	433,519
774,1	429,29
774,5	421,348
775	411,719
775,4	408,405
775,8	405,433
776,3	406,548
776,7	409,776
777,1	404,205
777,6	401,976
778	403,776
778,4	404,262
778,9	399,805
779,3	393,462
779,7	388,548
780,2	388,148
780,6	384,69
781	375,919
781,5	373,633
781,9	369,69
782,3	368,062
782,8	373,405
783,2	368,205
783,6	368,49
784,1	369,605
784,5	360,633
784,9	362,748
785,4	359,548
785,8	354,233
786,2	349,548
786,7	347,233
787,1	346,262
787,5	343,376
788	335,948
788,4	335,748
788,8	329,176
789,3	328,433
789,7	326,948
790,1	320,948
790,6	320,462
791	318,89
791,4	319,605
791,9	317,662
792,3	315,548
792,7	309,776
793,2	312,119
793,6	313,605
794	311,09
794,5	303,776
794,9	304,033
795,3	307,548
795,8	307,833
796,2	306,205
796,6	301,433
797,1	292,976
797,5	297,319
797,9	293,862
798,4	286,262
798,8	284,29
799,2	280,633
799,7	281,348
800,1	284,348
800,5	277,119
801	275,49
801,4	277,005
801,8	275,89
802,2	271,69
802,7	267,862
803,1	270,69
803,5	268,29
804	269,776
804,4	263,605
804,8	260,262
805,3	262,605
805,7	260,405
806,1	256,176
806,6	254,69
807	250,205
807,4	249,233
807,9	247,233
808,3	242,348
808,7	239,49
809,2	235,005
809,6	235,719
810	229,319
810,4	229,09
810,9	226,605
811,3	226,148
811,7	228,805
812,2	229,976
812,6	223,09
813	223,519
813,5	215,148
813,9	216,805
814,3	212,09
814,8	206,005
815,2	204,062
815,6	203,948
816,1	202,205
816,5	205,376
816,9	197,948
817,3	199,576
817,8	197,948
818,2	196,205
818,6	195,89
819,1	194,433
819,5	192,205
819,9	191,748
820,4	188,176
820,8	184,205
821,2	183,233
821,7	185,405
822,1	185,605
822,5	186,062
822,9	186,205
823,4	184,776
823,8	187,319
824,2	187,748
824,7	183,433
825,1	186,519
825,5	181,348
826	180,319
826,4	177,148
826,8	175,948
827,3	171,576
827,7	171,49
828,1	165,576
828,5	164,748
829	165,519
829,4	164,776
829,8	160,176
830,3	161,662
830,7	156,862
831,1	159,519
831,6	160,205
832	158,89
832,4	156,319
832,8	151,319
833,3	146,319
833,7	143,748
834,1	139,319
834,6	137,405
835	137,548
835,4	136,148
835,8	139,148
836,3	139,69
836,7	141,69
837,1	136,719
837,6	135,69
838	127,89
838,4	131,29
838,9	133,348
839,3	133,633
839,7	135,233
840,1	131,662
840,6	137,548
841	142,09
841,4	138,776
841,9	138,805
842,3	130,433
842,7	124,262
843,1	131,033
843,6	124,976
844	123,605
844,4	117,576
844,9	113,148
845,3	117,348
845,7	118,719
846,2	114,319
846,6	111,29
847	110,748
847,4	110,748
847,9	106,833
848,3	106,205
848,7	104,233
849,2	102,89
849,6	102,805
850	101,09
850,4	102,69
850,9	104,805
851,3	103,148
851,7	100,69
852,2	98,805
852,6	99,662
853	94,576
853,4	90,119
853,9	89,548
854,3	90,462
854,7	92,805
855,2	98,748
855,6	97,919
856	99,348
856,4	104,976
856,9	111,062
857,3	109,605
857,7	110,69
858,2	101,919
858,6	96,605
859	95,833
859,4	95,405
859,9	90,69
860,3	88,576
860,7	83,605
861,1	88,176
861,6	91,176
862	89,176
862,4	83,605
862,9	82,233
863,3	79,348
863,7	80,433
864,1	75,033
864,6	75,89
865	80,005
865,4	82,005
865,9	78,348
866,3	83,633
866,7	86,148
867,1	87,233
867,6	92,49
868	91,176
868,4	89,748
868,8	88,205
869,3	86,719
869,7	81,462
870,1	85,319
870,6	74,233
871	91,09
871,4	94,548
871,8	97,862
872,3	90,719
872,7	91,833
873,1	87,29
873,5	88,719
874	66,576
874,4	65,948
874,8	67,49
875,3	74,205
875,7	74,062
876,1	72,09
876,5	71,262
877	71,976
877,4	67,719
877,8	66,805
878,2	62,319
878,7	63,062
879,1	65,005
879,5	64,205
879,9	63,262
880,4	64,348
880,8	65,405
881,2	63,662
881,7	61,833
882,1	61,49
882,5	64,805
882,9	67,948
883,4	66,719
883,8	64,519
884,2	62,548
884,6	64,862
885,1	64,576
885,5	63,405
885,9	62,49
886,3	61,148
886,8	57,633
887,2	58,576
887,6	51,833
888	50,49
888,5	48,662
888,9	48,376
889,3	48,919
889,8	51,833
890,2	50,405
890,6	52,776
891	50,89
891,5	52,405
891,9	51,919
892,3	49,233
892,7	47,976
893,2	53,233
893,6	54,233
894	55,205
894,4	52,605
894,9	49,433
895,3	53,148
895,7	48,69
896,1	47,462
896,6	48,49
897	46,633
897,4	47,862
897,8	47,976
898,3	51,09
898,7	52,49
899,1	49,005
899,5	44,205
900	46,976
900,4	48,119
900,8	46,776
901,2	41,776
901,7	40,376
902,1	44,662
902,5	40,776
902,9	38,233
903,4	33,262
903,8	38,319
904,2	37,405
904,6	38,948
905,1	37,976
905,5	44,148
905,9	44,376
906,3	42,719
906,8	37,148
907,2	35,29
907,6	37,462
908	35,262
908,5	33,948
908,9	34,462
909,3	32,433
909,7	34,69
910,2	37,29
910,6	33,662
911	31,262
911,4	27,09
911,9	25,119
912,3	27,862
912,7	22,119
913,1	21,548
913,6	19,319
914	24,176
914,4	23,833
914,8	27,776
915,3	26,205
915,7	33,262
916,1	33,148
916,5	36,833
916,9	29,919
917,4	34,348
917,8	30,719
918,2	32,205
918,6	27,805
919,1	27,719
919,5	27,233
919,9	30,862
920,3	29,862
920,8	31,033
921,2	29,976
921,6	35,433
922	35,148
922,5	31,376
922,9	29,719
923,3	30,462
923,7	29,69
924,2	28,719
924,6	23,833
925	22,49
925,4	27,548
925,8	29,233
926,3	29,062
926,7	29,376
927,1	30,662
927,5	32,433
928	33,005
928,4	30,919
928,8	29,748
929,2	26,805
929,7	27,633
930,1	28,348
930,5	29,348
930,9	31,776
931,3	29,919
931,8	27,662
932,2	32,519
932,6	29,119
933	28,062
933,5	28,662
933,9	24,862
934,3	27,576
934,7	25,919
935,2	27,805
935,6	27,233
936	24,49
936,4	21,433
936,8	27,233
937,3	23,433
937,7	23,09
938,1	10,805
938,5	11,176
939	18,176
939,4	18,633
939,8	11,948
940,2	10,605
940,6	11,176
941,1	18,29
941,5	21,976
941,9	25,033
942,3	21,405
942,8	26,062
943,2	32,119
943,6	35,148
944	34,376
944,4	35,29
944,9	29,462
945,3	30,005
945,7	26,062
946,1	24,833
946,6	25,776
947	26,233
947,4	21,605
947,8	21,633
948,2	20,519
948,7	19,233
949,1	19,062
949,5	15,89
949,9	12,319
950,3	12,005
950,8	11,576
951,2	15,29
951,6	15,605
952	12,005
952,5	11,433
952,9	17,29
953,3	18,205
953,7	16,976
954,1	19,89
954,6	18,605
955	20,348
955,4	28,548
955,8	30,176
956,2	33,405
956,7	33,548
957,1	27,405
957,5	32,405
957,9	32,005
958,3	26,805
958,8	22,262
959,2	14,405
959,6	12,748
960	16,462
960,5	13,976
960,9	16,605
961,3	13,376
961,7	13,405
962,1	19,09
962,6	19,719
963	13,805
963,4	17,776
963,8	16,719
964,2	17,833
964,7	16,748
965,1	9,519
965,5	11,833
965,9	16,805
966,3	9,233
966,8	8,319
967,2	5,89
967,6	10,49
968	16,576
968,4	15,49
968,9	14,862
969,3	18,262
969,7	13,576
970,1	15,376
970,5	10,633
971	6,09
971,4	5,862
971,8	6,005
972,2	5,29
972,6	10,148
973,1	11,605
973,5	11,262
973,9	15,233
974,3	17,09
974,7	17,176
975,2	18,405
975,6	17,89
976	15,976
976,4	17,233
976,8	16,69
977,3	16,919
977,7	16,348
978,1	17,062
978,5	16,319
978,9	16,033
979,4	16,49
979,8	17,405
980,2	14,033
980,6	17,319
981	17,348
981,5	15,49
981,9	16,462
982,3	15,462
982,7	16,919
983,1	13,719
983,6	9,576
984	4,976
984,4	10,633
984,8	10,348
985,2	10,805
985,6	9,348
986,1	14,605
986,5	14,005
986,9	15,919
987,3	11,119
987,7	16,376
988,2	20,519
988,6	21,205
989	16,548
989,4	20,805
989,8	20,633
990,3	20,519
990,7	18,605
991,1	15,805
991,5	15,005
991,9	13,376
992,3	8,033
992,8	8,548
993,2	8,862
993,6	3,548
994	3,776
994,4	4,49
994,9	10,262
995,3	14,805
995,7	16,976
996,1	15,605
996,5	15,462
996,9	12,433
997,4	8,976
997,8	10,576
998,2	7,005
998,6	11,033
999	13,148
999,5	16,462
999,9	17,776
1000,3	24,205
1000,7	22,319
1001,1	21,576
1001,5	17,976
1002	17,748
1002,4	18,776
1002,8	20,405
1003,2	19,49
1003,6	17,719
1004	20,262
1004,5	18,519
1004,9	18,033
1005,3	14,69
1005,7	9,119
1006,1	7,776
1006,6	8,176
1007	4,262
1007,4	0,148
1007,8	3,49
1008,2	5,69
1008,6	11,833
1009,1	10,776
1009,5	11,29
1009,9	12,662
1010,3	15,176
1010,7	17,69
1011,1	20,805
1011,6	20,919
1012	19,662
1012,4	23,148
1012,8	25,49
1013,2	26,576
1013,6	21,005
1014,1	17,005
1014,5	14,09
1014,9	14,49
1015,3	11,09
1015,7	12,09
1016,1	7,033
1016,6	4,576
1017	6,405
1017,4	6,605
1017,8	2,776
1018,2	5,319
1018,6	5,09
1019,1	8,119
1019,5	8,576
1019,9	9,633
1020,3	10,49
1020,7	14,919
1021,1	11,176
1021,6	10,519
1022	12,433
1022,4	13,348
1022,8	11,09
1023,2	8,662
1023,6	7,69
1024,1	8,205
1024,5	7,062
1024,9	10,205
1025,3	11,148
1025,7	12,176
1026,1	14,09
1026,6	18,776
1027	18,262
1027,4	23,605
1027,8	18,948
1028,2	16,376
1028,6	15,49
1029	14,433
1029,5	12,49
1029,9	13,262
1030,3	11,462
1030,7	11,462
1031,1	17,233
1031,5	20,662
1032	21,005
1032,4	21,033
1032,8	22,462
1033,2	19,776
1033,6	21,205
1034	18,262
1034,4	12,69
1034,9	14,005
1035,3	11,548
1035,7	10,49
1036,1	13,376
1036,5	16,748
1036,9	18,348
1037,4	21,919
1037,8	22,148
1038,2	18,09
1038,6	20,69
1039	19,919
1039,4	17,462
1039,8	19,233
1040,3	19,862
1040,7	17,576
1041,1	21,09
1041,5	22,29
1041,9	19,433
1042,3	17,348
1042,7	14,262
1043,2	10,719
1043,6	17,519
1044	16,49
1044,4	13,662
1044,8	15,633
1045,2	13,805
1045,6	14,433
1046,1	17,233
1046,5	7,633
1046,9	9,576
1047,3	11,833
1047,7	12,005
1048,1	15,976
1048,5	16,89
1049	20,576
1049,4	27,005
1049,8	26,233
1050,2	21,49
1050,6	21,633
1051	16,205
1051,4	14,062
1051,9	5,976
1052,3	7,062
1052,7	12,976
1053,1	18,405
1053,5	17,833
1053,9	22,719
1054,3	21,433
1054,8	25,433
1055,2	15,233
1055,6	11,919
1056	8,833
1056,4	10,148
1056,8	10,576
1057,2	9,89
1057,6	11,776
1058,1	19,548
1058,5	12,948
1058,9	10,948
1059,3	8,462
1059,7	7,033
1060,1	8,633
1060,5	6,233
1061	4,09
1061,4	13,976
1061,8	18,49
1062,2	17,262
1062,6	20,433
1063	22,033
1063,4	23,176
1063,8	26,319
1064,3	21,633
1064,7	20,69
1065,1	18,89
1065,5	16,376
1065,9	17,776
1066,3	19,548
1066,7	16,348
1067,1	13,89
1067,6	15,376
1068	19,376
1068,4	14,948
1068,8	10,433
1069,2	11,119
1069,6	7,49
1070	8,719
1070,4	5,433
1070,9	3,062
1071,3	10,89
1071,7	14,805
1072,1	9,748
1072,5	13,005
1072,9	11,062
1073,3	14,348
1073,7	17,89
1074,2	18,348
1074,6	14,319
1075	17,062
1075,4	21,719
1075,8	24,776
1076,2	25,776
1076,6	24,976
1077	19,805
1077,5	22,919
1077,9	21,948
1078,3	14,376
1078,7	10,005
1079,1	9,519
1079,5	6,576
1079,9	5,833
1080,3	2,09
1080,7	4,548
1081,2	11,205
1081,6	10,862
1082	7,748
1082,4	8,09
1082,8	12,89
1083,2	18,833
1083,6	12,748
1084	10,405
1084,5	15,948
1084,9	11,148
1085,3	14,605
1085,7	15,633
1086,1	11,776
1086,5	13,062
1086,9	13,776
1087,3	9,748
1087,7	11,548
1088,2	7,348
1088,6	3,633
1089	3,233
1089,4	4,89
1089,8	3,062
1090,2	6,09
1090,6	4,605
1091	9,405
1091,4	11,119
1091,9	13,033
1092,3	14,119
1092,7	16,148
1093,1	10,29
1093,5	12,919
1093,9	8,233
1094,3	8,805
1094,7	6,833
1095,1	8,233
1095,5	7,548
1096	9,976
1096,4	11,49
1096,8	14,605
1097,2	13,948
1097,6	15,69
1098	13,919
1098,4	14,062
1098,8	17,748
1099,2	14,09
1099,6	10,548
1100,1	8,833
1100,5	10,548
1100,9	13,89
1101,3	11,976
1101,7	7,633
1102,1	8,719
1102,5	6,519
1102,9	-0,795
1103,3	-3,624
1103,7	-9,081
1104,2	-4,481
1104,6	3,719
1105	6,119
1105,4	8,89
1105,8	14,605
1106,2	13,405
1106,6	13,148
1107	8,605
1107,4	3,1
1107,8	0,753
1108,3	0,233
