Data from Subt2_00040.txt Node
Date: Mon Aug 28 13:16:51 MSK 2023
User: vat
Spectrometer: MAYP114033
Trigger mode: 0
Integration Time (sec): 1,000000E0
Scans to average: 5
Electric dark correction enabled: true
Nonlinearity correction enabled: false
Boxcar width: 3
XAxis mode: Wavelengths
Number of Pixels in Spectrum: 2068
>>>>>Begin Spectral Data<<<<<
199,4	0,467
199,9	4,067
200,4	3,533
200,8	5,267
201,3	7,01
201,8	9,152
202,2	10,352
202,7	12,495
203,2	10,21
203,6	12,181
204,1	12,667
204,6	14,152
205	13,867
205,5	16,495
206	15,324
206,4	19,295
206,9	20,895
207,4	20,124
207,8	17,295
208,3	17,695
208,8	18,952
209,2	23,01
209,7	21,495
210,2	16,952
210,6	16,01
211,1	16,124
211,5	15,981
212	15,667
212,5	15,067
212,9	15,324
213,4	18,095
213,9	20,638
214,3	21,21
214,8	22,01
215,3	16,981
215,7	13,895
216,2	14,552
216,7	13,267
217,1	12,552
217,6	12,095
218,1	12,467
218,5	12,838
219	12,81
219,5	12,124
219,9	12,267
220,4	11,61
220,9	12,381
221,3	11,752
221,8	16,781
222,3	20,581
222,7	20,467
223,2	24,038
223,6	27,238
224,1	31,324
224,6	28,267
225	22,952
225,5	20,067
226	23,152
226,4	22,352
226,9	17,581
227,4	15,952
227,8	21,638
228,3	24,695
228,8	28,181
229,2	31,581
229,7	29,867
230,2	28,067
230,6	25,095
231,1	21,924
231,5	25,981
232	24,152
232,5	17,895
232,9	17,838
233,4	23,352
233,9	24,952
234,3	25,381
234,8	24,095
235,3	18,981
235,7	16,638
236,2	17,781
236,7	11,581
237,1	14,867
237,6	15,695
238,1	12,524
238,5	20,352
239	23,952
239,4	24,324
239,9	32,752
240,4	28,067
240,8	31,695
241,3	38,21
241,8	34,381
242,2	34,924
242,7	38,41
243,2	34,524
243,6	41,495
244,1	35,352
244,6	29,524
245	30,01
245,5	33,695
245,9	27,352
246,4	29,41
246,9	26,21
247,3	26,867
247,8	21,838
248,3	23,552
248,7	19,067
249,2	21,21
249,7	19,238
250,1	17,667
250,6	19,124
251	21,467
251,5	20,181
252	17,638
252,4	14,981
252,9	16,067
253,4	15,895
253,8	14,524
254,3	16,981
254,8	18,067
255,2	18,81
255,7	25,295
256,1	25,638
256,6	29,181
257,1	33,667
257,5	33,524
258	27,352
258,5	24,267
258,9	20,238
259,4	18,781
259,9	13,238
260,3	9,438
260,8	10,181
261,2	16,724
261,7	21,038
262,2	20,124
262,6	19,01
263,1	21,695
263,6	21,781
264	21,267
264,5	19,381
264,9	21,267
265,4	19,581
265,9	19,095
266,3	19,552
266,8	18,581
267,3	18,352
267,7	18,238
268,2	16,524
268,7	17,181
269,1	19,067
269,6	22,81
270	26,324
270,5	25,867
271	28,524
271,4	27,81
271,9	33,381
272,4	35,81
272,8	33,41
273,3	30,552
273,7	27,752
274,2	27,924
274,7	22,867
275,1	22,267
275,6	20,752
276,1	15,695
276,5	15,781
277	22,81
277,4	20,067
277,9	27,867
278,4	22,01
278,8	23,552
279,3	25,667
279,8	24,667
280,2	20,581
280,7	18,21
281,1	17,095
281,6	26,867
282,1	21,638
282,5	20,495
283	19,238
283,4	17,952
283,9	24,21
284,4	22,524
284,8	14,324
285,3	19,581
285,8	21,895
286,2	22,81
286,7	24,381
287,1	20,467
287,6	22,924
288,1	28,667
288,5	27,581
289	26,324
289,5	30,924
289,9	34,695
290,4	34,495
290,8	31,81
291,3	28,038
291,8	28,381
292,2	28,267
292,7	25,667
293,1	18,038
293,6	15,095
294,1	17,095
294,5	19,467
295	21,581
295,5	19,895
295,9	18,581
296,4	23,095
296,8	26,724
297,3	22,267
297,8	16,181
298,2	9,324
298,7	14,638
299,1	17,152
299,6	13,952
300,1	12,581
300,5	16,952
301	21,438
301,5	21,524
301,9	19,152
302,4	14,21
302,8	16,695
303,3	15,124
303,8	11,038
304,2	5,638
304,7	8,524
305,1	8,181
305,6	13,381
306,1	13,152
306,5	18,181
307	20,61
307,4	22,895
307,9	22,41
308,4	23,552
308,8	22,495
309,3	26,295
309,8	25,638
310,2	27,124
310,7	30,581
311,1	29,724
311,6	27,467
312,1	22,467
312,5	17,867
313	16,667
313,4	19,667
313,9	16,01
314,4	21,838
314,8	22,124
315,3	30,41
315,7	33,638
316,2	34,552
316,7	26,838
317,1	28,838
317,6	23,781
318	24,21
318,5	22,067
319	22,838
319,4	21,552
319,9	22,581
320,3	23,581
320,8	27,152
321,3	26,781
321,7	23,295
322,2	21,838
322,6	23,095
323,1	26,638
323,6	27,667
324	28,981
324,5	29,952
324,9	30,295
325,4	30,01
325,9	29,838
326,3	29,924
326,8	27,324
327,2	22,895
327,7	21,61
328,2	21,495
328,6	21,867
329,1	18,752
329,5	16,152
330	17,752
330,5	19,295
330,9	21,381
331,4	26,01
331,8	26,41
332,3	29,124
332,8	29,295
333,2	29,124
333,7	25,467
334,1	27,667
334,6	25,667
335,1	26,181
335,5	25,781
336	25,667
336,4	27,41
336,9	28,552
337,4	28,61
337,8	28,152
338,3	26,21
338,7	25,867
339,2	30,495
339,7	33,838
340,1	30,981
340,6	24,724
341	27,781
341,5	30,381
342	30,695
342,4	32,61
342,9	30,038
343,3	31,581
343,8	32,352
344,2	30,867
344,7	31,267
345,2	27,581
345,6	25,981
346,1	23,01
346,5	22,981
347	26,467
347,5	26,095
347,9	22,267
348,4	28,181
348,8	24,752
349,3	30,924
349,8	36,181
350,2	35,952
350,7	36,067
351,1	41,038
351,6	44,267
352	48,895
352,5	53,438
353	58,324
353,4	71,495
353,9	82,21
354,3	94,067
354,8	108,638
355,3	125,81
355,7	141,438
356,2	166,152
356,6	195,01
357,1	230,581
357,5	268,724
358	312,724
358,5	368,095
358,9	429,552
359,4	498,667
359,8	574,238
360,3	660,895
360,8	758,181
361,2	874,21
361,7	993,524
362,1	1122,752
362,6	1264,895
363	1411,981
363,5	1580,495
364	1754,324
364,4	1932,21
364,9	2111,01
365,3	2293,867
365,8	2467,781
366,3	2632,724
366,7	2774,695
367,2	2904,038
367,6	3004,895
368,1	3092,867
368,5	3149,581
369	3175,152
369,5	3184,152
369,9	3160,324
370,4	3113,695
370,8	3049,095
371,3	2958,467
371,7	2854,181
372,2	2742,381
372,7	2608,981
373,1	2480,581
373,6	2338,181
374	2188,438
374,5	2044,267
374,9	1910,924
375,4	1771,038
375,9	1644,181
376,3	1512,524
376,8	1399,295
377,2	1292,552
377,7	1188,41
378,2	1084,781
378,6	1001,352
379,1	918,724
379,5	839,467
380	766,752
380,4	704,895
380,9	650,152
381,4	599,781
381,8	552,038
382,3	511,21
382,7	479,352
383,2	441,581
383,6	411,067
384,1	384,038
384,6	358,695
385	335,467
385,5	307,21
385,9	289,981
386,4	276,495
386,8	254,352
387,3	234,324
387,7	215,724
388,2	199,581
388,7	190,752
389,1	172,638
389,6	163,152
390	157,381
390,5	147,495
390,9	138,181
391,4	123,752
391,9	115,867
392,3	111,838
392,8	105,295
393,2	97,524
393,7	87,095
394,1	84,61
394,6	87,381
395,1	84,724
395,5	80,752
396	71,581
396,4	68,01
396,9	69,61
397,3	65,381
397,8	57,181
398,2	55,438
398,7	57,495
399,2	63,467
399,6	63,267
400,1	63,552
400,5	62,21
401	65,895
401,4	63,21
401,9	60,067
402,4	54,152
402,8	50,924
403,3	52,781
403,7	50,781
404,2	51,81
404,6	48,924
405,1	49,41
405,5	45,61
406	45,124
406,5	40,524
406,9	41,781
407,4	39,238
407,8	42,181
408,3	40,124
408,7	44,724
409,2	43,352
409,6	44,181
410,1	45,267
410,6	48,152
411	47,695
411,5	51,181
411,9	57,238
412,4	62,724
412,8	65,524
413,3	71,524
413,7	72,981
414,2	72,895
414,7	75,752
415,1	72,695
415,6	73,152
416	74,752
416,5	75,238
416,9	79,124
417,4	88,295
417,8	82,867
418,3	84,667
418,8	88,61
419,2	91,752
419,7	93,438
420,1	94,495
420,6	86,981
421	91,924
421,5	96,552
421,9	98,181
422,4	98,352
422,8	95,438
423,3	90,01
423,8	91,695
424,2	89,21
424,7	84,724
425,1	80,952
425,6	77,61
426	76,638
426,5	78,095
426,9	79,581
427,4	77,895
427,9	74,352
428,3	74,752
428,8	74,238
429,2	68,638
429,7	66,752
430,1	63,867
430,6	65,01
431	66,895
431,5	61,81
431,9	60,324
432,4	65,295
432,8	67,095
433,3	68,067
433,8	68,924
434,2	67,638
434,7	68,924
435,1	73,295
435,6	70,695
436	70,067
436,5	65,552
436,9	65,152
437,4	62,238
437,8	59,981
438,3	57,524
438,8	56,952
439,2	59,752
439,7	66,895
440,1	64,181
440,6	65,324
441	67,067
441,5	66,067
441,9	72,01
442,4	70,352
442,8	70,61
443,3	77,352
443,7	80,124
444,2	84,038
444,7	88,238
445,1	88,438
445,6	96,438
446	102,552
446,5	105,581
446,9	104,152
447,4	113,752
447,8	116,038
448,3	122,581
448,7	116,181
449,2	112,524
449,6	113,724
450,1	123,781
450,6	121,295
451	126,01
451,5	128,867
451,9	138,924
452,4	142,124
452,8	149,524
453,3	150,838
453,7	151,124
454,2	155,095
454,6	157,81
455,1	164,524
455,5	168,438
456	172,01
456,4	177,41
456,9	184,038
457,3	188,924
457,8	191,61
458,3	194,124
458,7	201,838
459,2	201,781
459,6	209,181
460,1	218,61
460,5	227,552
461	234,61
461,4	239,41
461,9	246,552
462,3	259,752
462,8	266,238
463,2	273,61
463,7	278,01
464,1	285,781
464,6	288,41
465	296,638
465,5	298,867
466	306,695
466,4	308,867
466,9	314,438
467,3	318,838
467,8	331,324
468,2	336,295
468,7	342,095
469,1	347,524
469,6	357,324
470	368,238
470,5	376,752
470,9	377,152
471,4	382,381
471,8	388,61
472,3	389,267
472,7	393,867
473,2	399,01
473,6	405,238
474,1	416,81
474,5	425,295
475	432,181
475,4	445,324
475,9	453,667
476,4	455,781
476,8	460,41
477,3	466,295
477,7	469,752
478,2	473,124
478,6	480,038
479,1	479,61
479,5	484,695
480	497,352
480,4	498,752
480,9	506,552
481,3	515,552
481,8	517,581
482,2	525,352
482,7	535,695
483,1	533,067
483,6	540,095
484	541,495
484,5	541,238
484,9	544,61
485,4	543,124
485,8	543,095
486,3	544,952
486,7	543,752
487,2	547,41
487,6	553,267
488,1	553,095
488,5	555,324
489	555,467
489,4	550,895
489,9	554,238
490,4	557,724
490,8	556,181
491,3	560,467
491,7	563,41
492,2	561,21
492,6	563,238
493,1	563,267
493,5	552,81
494	551,924
494,4	551,352
494,9	551,381
495,3	548,495
495,8	551,295
496,2	544,867
496,7	552,21
497,1	554,267
497,6	546,61
498	547,295
498,5	545,152
498,9	543,895
499,4	542,952
499,8	534,238
500,3	533,695
500,7	530,552
501,2	524,324
501,6	520,01
502,1	512,781
502,5	508,067
503	508,038
503,4	499,752
503,9	499,752
504,3	495,095
504,8	493,038
505,2	493,438
505,7	493,924
506,1	490,724
506,6	484,924
507	480,781
507,5	483,124
507,9	481,01
508,4	474,495
508,8	469,181
509,3	462,01
509,7	459,267
510,2	453,752
510,6	441,781
511,1	439,781
511,5	437,81
512	431,581
512,4	426,152
512,9	419,067
513,3	413,181
513,8	412,238
514,2	406,381
514,7	397,724
515,1	397,124
515,6	395,152
516	392,095
516,5	391,638
516,9	383,267
517,4	374,952
517,8	372,095
518,3	364,667
518,7	360,552
519,2	357,695
519,6	349,381
520,1	347,695
520,5	346,61
521	346,352
521,4	340,667
521,9	335,724
522,3	331,581
522,8	325,41
523,2	321,438
523,7	317,01
524,1	311,352
524,6	312,524
525	307,152
525,5	303,038
525,9	309,552
526,4	306,41
526,8	304,124
527,3	297,41
527,7	288,467
528,2	287,152
528,6	281,21
529,1	267,038
529,5	260,324
530	258,324
530,4	256,095
530,9	258,867
531,3	256,381
531,8	251,924
532,2	251,095
532,6	247,695
533,1	237,324
533,5	234,667
534	228,552
534,4	226,324
534,9	226,752
535,3	226,524
535,8	225,267
536,2	231,095
536,7	231,438
537,1	223,895
537,6	221,524
538	217,124
538,5	216,495
538,9	211,667
539,4	205,352
539,8	199,724
540,3	202,781
540,7	199,124
541,2	197,61
541,6	194,267
542,1	194,381
542,5	194,667
543	195,01
543,4	189,295
543,9	186,067
544,3	181,695
544,8	178,667
545,2	180,21
545,7	180,524
546,1	175,581
546,5	176,867
547	178,438
547,4	173,667
547,9	174,724
548,3	171,552
548,8	169,124
549,2	168,924
549,7	167,581
550,1	162,667
550,6	170,381
551	163,724
551,5	156,81
551,9	157,21
552,4	155,467
552,8	155,038
553,3	155,695
553,7	151,581
554,2	155,781
554,6	157,352
555,1	153,495
555,5	151,724
555,9	149,838
556,4	146,067
556,8	143,381
557,3	138,124
557,7	138,324
558,2	134,467
558,6	133,438
559,1	136,638
559,5	139,295
560	142,867
560,4	139,524
560,9	143,552
561,3	144,095
561,8	140,924
562,2	133,781
562,7	128,067
563,1	123,495
563,6	123,067
564	116,324
564,4	115,495
564,9	114,352
565,3	115,181
565,8	118,41
566,2	115,238
566,7	120,867
567,1	123,838
567,6	121,552
568	124,724
568,5	125,81
568,9	123,238
569,4	122,41
569,8	116,667
570,3	112,324
570,7	110,181
571,1	109,067
571,6	105,01
572	108,381
572,5	106,552
572,9	106,467
573,4	108,952
573,8	108,324
574,3	105,152
574,7	109,01
575,2	108,067
575,6	115,324
576,1	112,467
576,5	109,667
576,9	107,638
577,4	111,124
577,8	106,324
578,3	99,724
578,7	93,81
579,2	96,181
579,6	95,981
580,1	99,724
580,5	98,752
581	100,781
581,4	103,41
581,9	106,067
582,3	106,238
582,7	107,495
583,2	104,867
583,6	103,41
584,1	104,067
584,5	105,895
585	104,981
585,4	104,095
585,9	100,952
586,3	108,295
586,8	104,924
587,2	106,638
587,6	103,781
588,1	106,181
588,5	102,524
589	103,752
589,4	97,895
589,9	100,295
590,3	93,152
590,8	94,41
591,2	88,467
591,7	90,381
592,1	90,581
592,5	89,838
593	93,095
593,4	93,095
593,9	94,61
594,3	97,467
594,8	97,638
595,2	97,238
595,7	95,752
596,1	91,41
596,6	92,724
597	90,581
597,4	90,581
597,9	90,81
598,3	94,267
598,8	93,21
599,2	91,467
599,7	94,41
600,1	92,581
600,6	88,838
601	88,752
601,4	82,295
601,9	83,667
602,3	86,895
602,8	82,81
603,2	80,495
603,7	83,838
604,1	85,61
604,6	87,438
605	89,495
605,4	85,952
605,9	83,01
606,3	83,21
606,8	79,438
607,2	76,924
607,7	77,495
608,1	72,552
608,6	72,467
609	78,81
609,4	80,067
609,9	85,238
610,3	89,124
610,8	90,724
611,2	93,952
611,7	94,352
612,1	90,467
612,6	87,667
613	81,238
613,4	74,981
613,9	73,695
614,3	73,895
614,8	72,124
615,2	73,952
615,7	79,095
616,1	81,038
616,6	84,41
617	83,067
617,4	82,21
617,9	82,095
618,3	77,61
618,8	78,667
619,2	78,667
619,7	77,895
620,1	80,467
620,5	73,867
621	77,324
621,4	83,552
621,9	77,581
622,3	75,438
622,8	71,181
623,2	68,124
623,6	74,21
624,1	71,352
624,5	68,21
625	67,238
625,4	71,352
625,9	73,067
626,3	75,438
626,8	73,01
627,2	70,838
627,6	72,924
628,1	76,21
628,5	73,067
629	72,924
629,4	65,152
629,9	65,752
630,3	67,667
630,7	67,952
631,2	69,152
631,6	63,61
632,1	63,21
632,5	69,838
633	71,552
633,4	76,295
633,8	69,01
634,3	63,067
634,7	67,524
635,2	73,61
635,6	69,467
636,1	64,838
636,5	60,152
636,9	60,181
637,4	64,41
637,8	65,724
638,3	64,581
638,7	63,495
639,2	64,752
639,6	67,067
640	74,41
640,5	71,867
640,9	73,81
641,4	71,067
641,8	73,41
642,2	71,724
642,7	71,952
643,1	68,924
643,6	71,295
644	70,667
644,5	67,324
644,9	70,667
645,3	74,438
645,8	70,81
646,2	69,924
646,7	63,695
647,1	59,181
647,6	60,552
648	55,324
648,4	55,838
648,9	56,552
649,3	53,495
649,8	58,867
650,2	56,981
650,6	54,724
651,1	55,981
651,5	53,495
652	57,61
652,4	59,095
652,9	56,752
653,3	56,352
653,7	58,295
654,2	58,952
654,6	57,238
655,1	55,124
655,5	55,352
655,9	52,838
656,4	54,467
656,8	57,381
657,3	58,124
657,7	56,324
658,2	53,495
658,6	51,21
659	55,838
659,5	58,552
659,9	60,41
660,4	60,61
660,8	61,124
661,2	59,324
661,7	60,895
662,1	61,01
662,6	61,638
663	56,638
663,4	57,352
663,9	59,381
664,3	55,438
664,8	53,324
665,2	53,238
665,6	54,638
666,1	53,895
666,5	50,038
667	51,095
667,4	60,352
667,9	63,21
668,3	59,038
668,7	54,467
669,2	51,21
669,6	49,838
670,1	48,638
670,5	44,467
670,9	42,81
671,4	46,695
671,8	48,238
672,3	52,695
672,7	55,981
673,1	57,781
673,6	59,124
674	58,324
674,5	55,067
674,9	55,152
675,3	54,038
675,8	49,895
676,2	46,295
676,7	46,552
677,1	49,61
677,5	50,781
678	51,01
678,4	53,038
678,9	56,267
679,3	56,467
679,7	52,467
680,2	51,267
680,6	50,895
681,1	50,238
681,5	48,895
681,9	48,752
682,4	48,438
682,8	49,838
683,3	52,924
683,7	56,21
684,1	54,152
684,6	51,438
685	46,41
685,5	42,724
685,9	40,781
686,3	40,752
686,8	41,095
687,2	42,495
687,7	44,181
688,1	46,81
688,5	50,952
689	56,067
689,4	49,438
689,9	46,467
690,3	47,352
690,7	50,724
691,2	51,295
691,6	49,667
692	44,524
692,5	48,838
692,9	50,352
693,4	50,724
693,8	45,152
694,2	46,038
694,7	41,581
695,1	48,724
695,6	50,81
696	48,895
696,4	44,667
696,9	44,238
697,3	47,495
697,8	52,895
698,2	47,038
698,6	42,552
699,1	42,352
699,5	44,638
699,9	43,924
700,4	41,21
700,8	40,238
701,3	40,324
701,7	37,61
702,1	40,038
702,6	35,581
703	39,295
703,5	36,724
703,9	39,152
704,3	35,552
704,8	32,695
705,2	31,495
705,6	36,152
706,1	31,638
706,5	37,41
707	36,638
707,4	42,924
707,8	50,295
708,3	49,752
708,7	48,781
709,2	52,81
709,6	51,267
710	46,952
710,5	44,21
710,9	43,01
711,3	43,324
711,8	42,724
712,2	45,21
712,7	42,41
713,1	45,152
713,5	46,724
714	46,61
714,4	42,038
714,8	43,067
715,3	43,181
715,7	40,724
716,2	45,152
716,6	40,667
717	42,381
717,5	41,981
717,9	40,238
718,3	37,41
718,8	40,867
719,2	35,752
719,7	38,895
720,1	37,981
720,5	43,838
721	46,895
721,4	48,295
721,8	47,724
722,3	49,952
722,7	47,038
723,2	45,581
723,6	46,238
724	45,295
724,5	43,781
724,9	42,667
725,3	40,438
725,8	44,61
726,2	42,238
726,7	35,267
727,1	33,895
727,5	30,981
728	26,352
728,4	29,781
728,8	22,981
729,3	23,41
729,7	25,781
730,1	25,552
730,6	29,495
731	32,867
731,5	31,238
731,9	36,381
732,3	39,01
732,8	43,638
733,2	43,81
733,6	47,038
734,1	47,295
734,5	48,581
734,9	46,61
735,4	43,838
735,8	35,638
736,3	32,981
736,7	26,924
737,1	23,495
737,6	18,21
738	25,238
738,4	29,381
738,9	31,952
739,3	38,924
739,7	39,41
740,2	42,152
740,6	46,124
741,1	37,438
741,5	33,41
741,9	35,867
742,4	35,41
742,8	36,695
743,2	40,067
743,7	37,495
744,1	41,838
744,5	43,61
745	43,095
745,4	41,467
745,8	40,01
746,3	33,295
746,7	33,924
747,2	26,381
747,6	25,981
748	27,038
748,5	25,238
748,9	22,867
749,3	27,752
749,8	29,552
750,2	30,495
750,6	30,267
751,1	29,667
751,5	31,381
751,9	32,867
752,4	37,095
752,8	36,238
753,3	38,381
753,7	38,41
754,1	38,895
754,6	37,81
755	38,952
755,4	40,01
755,9	43,895
756,3	48,438
756,7	49,324
757,2	44,467
757,6	42,324
758	42,438
758,5	34,667
758,9	30,752
759,3	28,01
759,8	24,067
760,2	31,181
760,6	36,495
761,1	38,038
761,5	39,867
761,9	38,724
762,4	39,81
762,8	43,41
763,3	40,21
763,7	36,895
764,1	32,381
764,6	27,581
765	29,267
765,4	32,01
765,9	30,067
766,3	29,324
766,7	28,667
767,2	28,324
767,6	31,638
768	24,867
768,5	22,638
768,9	22,581
769,3	24,552
769,8	20,838
770,2	20,752
770,6	22,524
771,1	25,095
771,5	24,124
771,9	26,467
772,4	25,01
772,8	27,41
773,2	30,381
773,7	29,067
774,1	34,238
774,5	32,81
775	30,981
775,4	30,695
775,8	32,295
776,3	30,267
776,7	31,495
777,1	25,21
777,6	21,724
778	18,581
778,4	17,124
778,9	17,124
779,3	20,267
779,7	19,867
780,2	26,438
780,6	32,352
781	37,41
781,5	36,238
781,9	36,067
782,3	32,01
782,8	29,238
783,2	22,524
783,6	23,438
784,1	20,552
784,5	22,41
784,9	21,095
785,4	23,21
785,8	24,124
786,2	26,438
786,7	24,981
787,1	32,124
787,5	33,152
788	29,867
788,4	32,838
788,8	31,81
789,3	34,781
789,7	33,181
790,1	32,01
790,6	28,581
791	27,838
791,4	25,495
791,9	28,895
792,3	28,952
792,7	32,981
793,2	31,752
793,6	30,952
794	34,552
794,5	32,581
794,9	30,524
795,3	29,267
795,8	26,61
796,2	22,638
796,6	25,438
797,1	27,838
797,5	27,895
797,9	28,724
798,4	26,981
798,8	24,038
799,2	24,267
799,7	25,781
800,1	22,952
800,5	28,381
801	30,895
801,4	31,467
801,8	31,781
802,2	30,381
802,7	29,981
803,1	34,781
803,5	27,924
804	24,181
804,4	25,638
804,8	30,981
805,3	34,41
805,7	33,867
806,1	29,581
806,6	32,238
807	32,781
807,4	31,552
807,9	27,61
808,3	28,495
808,7	28,924
809,2	30,438
809,6	30,038
810	31,752
810,4	36,181
810,9	39,667
811,3	35,724
811,7	32,752
812,2	32,552
812,6	33,095
813	34,924
813,5	35,552
813,9	33,067
814,3	32,095
814,8	32,467
815,2	30,238
815,6	27,981
816,1	28,381
816,5	21,038
816,9	21,295
817,3	23,067
817,8	27,781
818,2	26,467
818,6	27,552
819,1	23,838
819,5	25,581
819,9	26,752
820,4	29,152
820,8	24,41
821,2	26,524
821,7	23,867
822,1	24,467
822,5	29,81
822,9	24,924
823,4	22,667
823,8	26,61
824,2	23,438
824,7	25,095
825,1	24,267
825,5	20,381
826	21,038
826,4	20,524
826,8	16,038
827,3	20,638
827,7	22,381
828,1	24,81
828,5	27,781
829	30,41
829,4	27,41
829,8	32,267
830,3	32,181
830,7	30,324
831,1	27,724
831,6	25,238
832	26,352
832,4	33,581
832,8	25,924
833,3	25,467
833,7	27,095
834,1	27,267
834,6	30,752
835	29,438
835,4	20,495
835,8	26,095
836,3	24,01
836,7	24,924
837,1	25,61
837,6	16,895
838	14,41
838,4	16,695
838,9	18,181
839,3	22,152
839,7	21,352
840,1	22,124
840,6	26,667
841	24,895
841,4	27,895
841,9	28,21
842,3	22,124
842,7	19,124
843,1	14,838
843,6	15,238
844	19,638
844,4	23,181
844,9	22,667
845,3	25,01
845,7	26,295
846,2	27,552
846,6	27,895
847	29,524
847,4	26,438
847,9	21,295
848,3	18,324
848,7	19,038
849,2	20,152
849,6	18,352
850	16,495
850,4	13,895
850,9	18,524
851,3	25,324
851,7	24,21
852,2	23,095
852,6	23,152
853	27,667
853,4	28,352
853,9	23,81
854,3	21,867
854,7	26,924
855,2	30,01
855,6	28,924
856	28,467
856,4	24,61
856,9	23,552
857,3	21,981
857,7	19,924
858,2	19,981
858,6	22,21
859	16,867
859,4	19,381
859,9	23,381
860,3	21,21
860,7	19,352
861,1	22,867
861,6	25,552
862	23,838
862,4	24,067
862,9	24,21
863,3	25,324
863,7	25,981
864,1	22,01
864,6	19,981
865	22,467
865,4	22,01
865,9	20,067
866,3	24,352
866,7	24,295
867,1	21,838
867,6	21,695
868	18,238
868,4	19,067
868,8	20,01
869,3	20,867
869,7	24,124
870,1	26,695
870,6	25,438
871	71,152
871,4	74,267
871,8	75,067
872,3	72,381
872,7	64,324
873,1	61,181
873,5	59,524
874	17,01
874,4	15,038
874,8	15,952
875,3	17,952
875,7	21,324
876,1	23,524
876,5	26,752
877	25,695
877,4	26,467
877,8	22,952
878,2	19,695
878,7	23,267
879,1	24,638
879,5	25,41
879,9	20,467
880,4	15,067
880,8	19,352
881,2	17,752
881,7	16,867
882,1	15,238
882,5	13,095
882,9	14,724
883,4	20,61
883,8	17,61
884,2	18,981
884,6	15,324
885,1	14,838
885,5	12,667
885,9	17,352
886,3	18,267
886,8	22,067
887,2	19,81
887,6	22,467
888	21,124
888,5	23,124
888,9	22,01
889,3	19,324
889,8	18,21
890,2	18,152
890,6	18,01
891	16,781
891,5	17,838
891,9	15,695
892,3	16,381
892,7	16,067
893,2	21,152
893,6	17,152
894	23,067
894,4	17,495
894,9	21,21
895,3	16,695
895,7	15,924
896,1	14,752
896,6	17,238
897	14,867
897,4	20,067
897,8	20,867
898,3	24,467
898,7	18,752
899,1	16,238
899,5	18,467
900	18,295
900,4	12,152
900,8	5,495
901,2	2,61
901,7	12,467
902,1	10,524
902,5	8,781
902,9	9,41
903,4	15,981
903,8	16,638
904,2	23,524
904,6	18,124
905,1	19,838
905,5	20,581
905,9	18,438
906,3	15,067
906,8	19,181
907,2	14,01
907,6	12,867
908	16,495
908,5	12,267
908,9	11,724
909,3	14,124
909,7	15,21
910,2	16,21
910,6	17,01
911	16,01
911,4	20,981
911,9	23,181
912,3	23,638
912,7	23,01
913,1	23,867
913,6	24,952
914	26,324
914,4	25,752
914,8	26,61
915,3	25,067
915,7	26,152
916,1	25,381
916,5	22,267
916,9	18,552
917,4	15,41
917,8	11,524
918,2	14,524
918,6	10,61
919,1	8,067
919,5	13,61
919,9	16,238
920,3	18,695
920,8	26,838
921,2	25,181
921,6	25,038
922	26,181
922,5	24,295
922,9	24,381
923,3	27,467
923,7	23,21
924,2	22,41
924,6	26,41
925	28,41
925,4	28,667
925,8	27,152
926,3	25,752
926,7	26,81
927,1	26,867
927,5	27,01
928	27,152
928,4	23,124
928,8	26,61
929,2	26,895
929,7	25,952
930,1	25,124
930,5	17,467
930,9	20,038
931,3	24,981
931,8	23,752
932,2	23,952
932,6	23,581
933	17,867
933,5	24,552
933,9	27,61
934,3	25,238
934,7	21,438
935,2	16,267
935,6	15,752
936	13,924
936,4	13,038
936,8	7,695
937,3	9,295
937,7	13,238
938,1	22,295
938,5	21,724
939	31,752
939,4	31,61
939,8	31,238
940,2	29,067
940,6	29,295
941,1	23,295
941,5	24,095
941,9	23,867
942,3	24,095
942,8	22,41
943,2	20,038
943,6	17,781
944	18,81
944,4	18,152
944,9	14,924
945,3	13,981
945,7	18,867
946,1	24,038
946,6	26,41
947	26,095
947,4	23,238
947,8	25,238
948,2	31,467
948,7	25,124
949,1	25,695
949,5	19,638
949,9	18,21
950,3	17,838
950,8	18,895
951,2	9,581
951,6	14,181
952	14,352
952,5	17,267
952,9	14,838
953,3	17,667
953,7	14,267
954,1	19,495
954,6	17,552
955	17,667
955,4	18,267
955,8	22,924
956,2	22,467
956,7	25,267
957,1	23,667
957,5	26,124
957,9	24,238
958,3	23,238
958,8	25,01
959,2	27,295
959,6	31,01
960	31,867
960,5	28,61
960,9	28,638
961,3	30,124
961,7	31,01
962,1	31,038
962,6	29,181
963	33,267
963,4	37,01
963,8	33,981
964,2	32,067
964,7	27,895
965,1	29,324
965,5	26,41
965,9	20,581
966,3	20,667
966,8	21,638
967,2	22,895
967,6	20,924
968	15,21
968,4	20,352
968,9	18,495
969,3	19,152
969,7	20,667
970,1	21,41
970,5	22,095
971	26,352
971,4	22,781
971,8	23,181
972,2	19,238
972,6	19,438
973,1	19,552
973,5	22,695
973,9	17,21
974,3	17,095
974,7	17,324
975,2	15,352
975,6	14,067
976	14,152
976,4	14,667
976,8	16,267
977,3	11,41
977,7	12,838
978,1	14,838
978,5	18,952
978,9	21,467
979,4	17,038
979,8	17,61
980,2	24,667
980,6	26,467
981	27,152
981,5	21,552
981,9	22,152
982,3	20,781
982,7	22,724
983,1	18,41
983,6	17,181
984	16,895
984,4	16,838
984,8	9,467
985,2	14,152
985,6	12,581
986,1	10,21
986,5	12,638
986,9	11,61
987,3	11,81
987,7	10,438
988,2	1,752
988,6	-0,219
989	5,695
989,4	-0,133
989,8	1,781
990,3	4,181
990,7	7,981
991,1	15,924
991,5	19,295
991,9	14,067
992,3	16,41
992,8	15,781
993,2	16,267
993,6	17,352
994	20,352
994,4	21,667
994,9	21,467
995,3	24,695
995,7	21,01
996,1	21,467
996,5	17,238
996,9	20,152
997,4	18,324
997,8	20,124
998,2	19,095
998,6	21,952
999	21,324
999,5	25,952
999,9	17,095
1000,3	16,552
1000,7	19,238
1001,1	19,181
1001,5	21,867
1002	20,952
1002,4	19,981
1002,8	22,695
1003,2	20,181
1003,6	17,781
1004	22,124
1004,5	21,695
1004,9	22,181
1005,3	21,724
1005,7	24,981
1006,1	24,181
1006,6	23,095
1007	17,295
1007,4	12,695
1007,8	12,467
1008,2	15,952
1008,6	13,81
1009,1	12,495
1009,5	17,495
1009,9	20,81
1010,3	24,067
1010,7	25,295
1011,1	22,952
1011,6	20,152
1012	29,21
1012,4	24,924
1012,8	20,038
1013,2	20,324
1013,6	18,981
1014,1	17,638
1014,5	20,667
1014,9	14,467
1015,3	14,352
1015,7	20,667
1016,1	18,41
1016,6	17,752
1017	17,867
1017,4	14,867
1017,8	18,495
1018,2	15,867
1018,6	12,152
1019,1	16,81
1019,5	19,495
1019,9	19,21
1020,3	17,924
1020,7	17,181
1021,1	16,695
1021,6	15,295
1022	12,467
1022,4	11,495
1022,8	13,238
1023,2	15,267
1023,6	11,752
1024,1	18,752
1024,5	19,867
1024,9	25,495
1025,3	24,095
1025,7	26,495
1026,1	22,952
1026,6	28,781
1027	24,095
1027,4	25,924
1027,8	20,724
1028,2	21,924
1028,6	16,238
1029	16,41
1029,5	12,438
1029,9	19,638
1030,3	19,981
1030,7	20,838
1031,1	22,238
1031,5	24,067
1032	27,838
1032,4	33,638
1032,8	28,01
1033,2	24,41
1033,6	20,01
1034	19,124
1034,4	18,581
1034,9	22,524
1035,3	18,724
1035,7	18,552
1036,1	23,381
1036,5	22,781
1036,9	19,924
1037,4	26,095
1037,8	19,895
1038,2	22,295
1038,6	21,952
1039	23,324
1039,4	30,352
1039,8	39,295
1040,3	36,638
1040,7	42,381
1041,1	36,295
1041,5	37,238
1041,9	36,695
1042,3	32,552
1042,7	21,438
1043,2	19,067
1043,6	20,467
1044	21,781
1044,4	21,895
1044,8	18,981
1045,2	17,981
1045,6	24,552
1046,1	27,295
1046,5	22,695
1046,9	26,581
1047,3	28,895
1047,7	26,295
1048,1	29,181
1048,5	25,952
1049	20,724
1049,4	18,695
1049,8	18,981
1050,2	18,295
1050,6	18,467
1051	19,467
1051,4	17,524
1051,9	22,495
1052,3	22,724
1052,7	20,352
1053,1	17,81
1053,5	19,01
1053,9	19,724
1054,3	18,867
1054,8	15,21
1055,2	16,295
1055,6	16,495
1056	14,724
1056,4	10,41
1056,8	10,552
1057,2	15,495
1057,6	20,41
1058,1	26,41
1058,5	26,124
1058,9	28,467
1059,3	32,867
1059,7	29,552
1060,1	26,867
1060,5	23,124
1061	13,495
1061,4	11,924
1061,8	13,095
1062,2	15,781
1062,6	15,038
1063	13,152
1063,4	13,095
1063,8	13,467
1064,3	19,867
1064,7	19,752
1065,1	16,695
1065,5	20,467
1065,9	25,438
1066,3	26,267
1066,7	34,181
1067,1	30,981
1067,6	31,695
1068	34,81
1068,4	36,352
1068,8	36,638
1069,2	39,981
1069,6	33,724
1070	33,952
1070,4	30,41
1070,9	33,124
1071,3	32,724
1071,7	29,638
1072,1	26,667
1072,5	31,695
1072,9	28,295
1073,3	31,638
1073,7	26,095
1074,2	21,667
1074,6	23,524
1075	25,238
1075,4	26,495
1075,8	23,638
1076,2	23,895
1076,6	24,467
1077	28,324
1077,5	31,352
1077,9	23,324
1078,3	18,381
1078,7	20,924
1079,1	23,381
1079,5	25,352
1079,9	26,01
1080,3	20,495
1080,7	26,581
1081,2	29,067
1081,6	26,724
1082	23,952
1082,4	21,524
1082,8	19,552
1083,2	14,895
1083,6	12,41
1084	10,41
1084,5	12,581
1084,9	9,095
1085,3	5,895
1085,7	1,038
1086,1	7,181
1086,5	9,21
1086,9	9,924
1087,3	14,61
1087,7	19,752
1088,2	24,61
1088,6	30,552
1089	32,267
1089,4	33,81
1089,8	35,695
1090,2	31,781
1090,6	26,552
1091	23,438
1091,4	21,924
1091,9	17,695
1092,3	17,067
1092,7	14,01
1093,1	16,867
1093,5	18,295
1093,9	18,438
1094,3	16,638
1094,7	17,038
1095,1	21,095
1095,5	21,724
1096	21,41
1096,4	22,267
1096,8	26,895
1097,2	26,324
1097,6	27,324
1098	20,924
1098,4	22,152
1098,8	21,095
1099,2	23,21
1099,6	21,295
1100,1	24,695
1100,5	23,524
1100,9	22,381
1101,3	22,41
1101,7	23,295
1102,1	20,581
1102,5	18,438
1102,9	15,467
1103,3	18,124
1103,7	23,438
1104,2	21,21
1104,6	18,695
1105	15,267
1105,4	17,41
1105,8	15,352
1106,2	11,867
1106,6	6,152
1107	4,295
1107,4	3,367
1107,8	5,787
1108,3	0,217
