Data from Subt2_00108.txt Node
Date: Mon Aug 28 13:39:21 MSK 2023
User: vat
Spectrometer: MAYP114033
Trigger mode: 0
Integration Time (sec): 1,000000E0
Scans to average: 5
Electric dark correction enabled: true
Nonlinearity correction enabled: false
Boxcar width: 3
XAxis mode: Wavelengths
Number of Pixels in Spectrum: 2068
>>>>>Begin Spectral Data<<<<<
199,4	-0,733
199,9	-4,793
200,4	-2,167
200,8	0,395
201,3	2,31
201,8	6,167
202,2	8,081
202,7	8,852
203,2	15,31
203,6	17,652
204,1	17,51
204,6	17,138
205	14,767
205,5	15,367
206	15,538
206,4	14,738
206,9	12,281
207,4	9,652
207,8	9,938
208,3	10,852
208,8	11,252
209,2	14,224
209,7	13,395
210,2	13,024
210,6	17,652
211,1	20,938
211,5	19,424
212	22,167
212,5	18,252
212,9	15,938
213,4	15,624
213,9	13,052
214,3	12,624
214,8	12,338
215,3	8,652
215,7	8,967
216,2	13,024
216,7	19,081
217,1	18,052
217,6	17,967
218,1	18,024
218,5	19,881
219	21,852
219,5	22,795
219,9	16,481
220,4	19,081
220,9	17,481
221,3	18,452
221,8	16,91
222,3	21,052
222,7	24,595
223,2	25,395
223,6	24,138
224,1	21,424
224,6	20,881
225	20,338
225,5	10,567
226	3,51
226,4	7,395
226,9	6,967
227,4	15,51
227,8	15,938
228,3	15,738
228,8	23,224
229,2	27,452
229,7	26,395
230,2	30,795
230,6	24,052
231,1	24,024
231,5	28,595
232	25,11
232,5	19,51
232,9	20,11
233,4	17,652
233,9	17,652
234,3	19,31
234,8	17,938
235,3	19,567
235,7	21,281
236,2	19,652
236,7	13,624
237,1	17,824
237,6	15,624
238,1	13,395
238,5	14,395
239	16,51
239,4	16,567
239,9	20,967
240,4	14,624
240,8	21,252
241,3	21,995
241,8	20,567
242,2	19,681
242,7	21,767
243,2	24,681
243,6	29,224
244,1	21,995
244,6	18,881
245	19,367
245,5	18,052
245,9	17,338
246,4	12,424
246,9	14,538
247,3	18,738
247,8	16,024
248,3	20,481
248,7	19,681
249,2	17,91
249,7	23,395
250,1	16,938
250,6	14,195
251	17,081
251,5	14,252
252	11,852
252,4	10,795
252,9	10,71
253,4	13,481
253,8	13,795
254,3	17,452
254,8	18,767
255,2	17,795
255,7	19,595
256,1	18,538
256,6	16,538
257,1	18,795
257,5	13,338
258	4,938
258,5	13,338
258,9	8,595
259,4	5,938
259,9	7,91
260,3	3,481
260,8	3,052
261,2	12,51
261,7	6,738
262,2	9,481
262,6	12,224
263,1	10,995
263,6	10,824
264	14,167
264,5	10,081
264,9	9,795
265,4	9,51
265,9	5,252
266,3	-0,09
266,8	4,881
267,3	8,11
267,7	9,281
268,2	14,738
268,7	15,795
269,1	11,51
269,6	17,252
270	12,338
270,5	14,767
271	9,967
271,4	2,395
271,9	-0,005
272,4	7,71
272,8	8,595
273,3	11,967
273,7	9,11
274,2	10,338
274,7	18,31
275,1	22,995
275,6	26,138
276,1	25,195
276,5	23,395
277	20,567
277,4	21,652
277,9	16,595
278,4	12,71
278,8	9,595
279,3	12,024
279,8	13,624
280,2	17,624
280,7	21,338
281,1	20,281
281,6	19,91
282,1	18,91
282,5	17,967
283	15,395
283,4	13,481
283,9	11,31
284,4	11,338
284,8	10,71
285,3	6,71
285,8	2,995
286,2	3,252
286,7	3,51
287,1	2,081
287,6	2,081
288,1	5,195
288,5	11,995
289	16,624
289,5	17,652
289,9	18,938
290,4	23,167
290,8	29,91
291,3	31,795
291,8	25,252
292,2	25,567
292,7	26,967
293,1	26,71
293,6	21,995
294,1	16,31
294,5	16,967
295	20,338
295,5	19,795
295,9	18,538
296,4	14,024
296,8	13,024
297,3	18,595
297,8	21,595
298,2	19,595
298,7	16,367
299,1	16,338
299,6	16,91
300,1	18,052
300,5	13,538
301	11,11
301,5	14,024
301,9	12,052
302,4	10,995
302,8	10,824
303,3	17,71
303,8	24,195
304,2	20,052
304,7	19,138
305,1	22,281
305,6	21,967
306,1	23,681
306,5	13,452
307	6,567
307,4	5,224
307,9	4,567
308,4	3,481
308,8	4,224
309,3	9,052
309,8	13,081
310,2	13,767
310,7	15,081
311,1	15,767
311,6	13,624
312,1	12,281
312,5	4,852
313	8,024
313,4	12,967
313,9	15,967
314,4	14,71
314,8	20,395
315,3	25,824
315,7	26,681
316,2	20,281
316,7	18,367
317,1	13,081
317,6	17,938
318	17,795
318,5	11,624
319	13,51
319,4	19,71
319,9	14,481
320,3	17,91
320,8	12,738
321,3	8,738
321,7	12,852
322,2	10,281
322,6	12,138
323,1	10,281
323,6	9,195
324	8,224
324,5	12,652
324,9	14,138
325,4	12,567
325,9	9,024
326,3	14,052
326,8	14,51
327,2	18,71
327,7	14,252
328,2	16,024
328,6	21,567
329,1	17,367
329,5	17,767
330	21,138
330,5	21,824
330,9	21,795
331,4	17,738
331,8	15,681
332,3	20,881
332,8	19,71
333,2	19,052
333,7	9,852
334,1	10,024
334,6	9,338
335,1	9,31
335,5	5,481
336	9,31
336,4	7,338
336,9	13,367
337,4	12,91
337,8	15,624
338,3	15,024
338,7	14,681
339,2	9,738
339,7	12,367
340,1	10,224
340,6	10,11
341	7,767
341,5	6,31
342	7,024
342,4	0,281
342,9	-0,005
343,3	2,824
343,8	4,71
344,2	6,252
344,7	8,224
345,2	11,195
345,6	20,481
346,1	18,938
346,5	17,595
347	13,681
347,5	13,938
347,9	14,452
348,4	15,195
348,8	15,824
349,3	12,195
349,8	13,91
350,2	18,852
350,7	18,052
351,1	18,138
351,6	18,081
352	19,367
352,5	24,967
353	31,281
353,4	36,052
353,9	43,338
354,3	58,024
354,8	61,024
355,3	73,281
355,7	86,595
356,2	99,024
356,6	113,281
357,1	132,938
357,5	150,424
358	184,881
358,5	206,424
358,9	239,395
359,4	279,424
359,8	325,824
360,3	368,224
360,8	421,281
361,2	476,481
361,7	545,967
362,1	619,224
362,6	693,11
363	780,852
363,5	872,824
364	965,652
364,4	1062,424
364,9	1158,91
365,3	1253,881
365,8	1353,195
366,3	1434,367
366,7	1509,595
367,2	1577,567
367,6	1636,224
368,1	1679,567
368,5	1704,91
369	1713,624
369,5	1717,538
369,9	1709,424
370,4	1682,595
370,8	1642,852
371,3	1598,91
371,7	1544,824
372,2	1482,081
372,7	1408,395
373,1	1339,738
373,6	1266,567
374	1190,681
374,5	1112,567
374,9	1039,881
375,4	969,91
375,9	906,51
376,3	831,452
376,8	766,767
377,2	708,652
377,7	652,195
378,2	598,995
378,6	550,052
379,1	498,081
379,5	457,881
380	423,252
380,4	386,967
380,9	359,595
381,4	330,452
381,8	304,31
382,3	287,31
382,7	270,081
383,2	248,91
383,6	236,652
384,1	218,424
384,6	204,224
385	195,938
385,5	184,052
385,9	175,71
386,4	166,824
386,8	155,51
387,3	145,452
387,7	137,31
388,2	126,567
388,7	117,167
389,1	107,967
389,6	101,938
390	94,995
390,5	92,081
390,9	88,252
391,4	84,31
391,9	78,11
392,3	76,395
392,8	76,081
393,2	79,852
393,7	75,995
394,1	70,995
394,6	67,081
395,1	72,195
395,5	69,767
396	62,481
396,4	50,395
396,9	48,967
397,3	50,567
397,8	47,338
398,2	39,052
398,7	35,738
399,2	38,852
399,6	41,395
400,1	36,11
400,5	32,824
401	38,281
401,4	38,967
401,9	44,167
402,4	38,595
402,8	41,481
403,3	44,738
403,7	46,824
404,2	42,452
404,6	44,481
405,1	44,367
405,5	49,424
406	50,681
406,5	52,395
406,9	57,252
407,4	56,967
407,8	56,595
408,3	47,967
408,7	44,452
409,2	40,51
409,6	41,424
410,1	40,738
410,6	41,91
411	39,995
411,5	45,538
411,9	49,51
412,4	56,138
412,8	58,938
413,3	59,624
413,7	63,138
414,2	69,11
414,7	71,567
415,1	76,595
415,6	73,138
416	76,281
416,5	80,538
416,9	88,881
417,4	92,395
417,8	98,31
418,3	96,138
418,8	99,395
419,2	99,595
419,7	98,71
420,1	92,767
420,6	96,652
421	95,138
421,5	101,538
421,9	102,367
422,4	109,652
422,8	112,195
423,3	116,195
423,8	113,51
424,2	113,252
424,7	112,824
425,1	112,395
425,6	110,281
426	111,395
426,5	110,795
426,9	110,852
427,4	120,881
427,9	121,195
428,3	126,938
428,8	124,852
429,2	130,481
429,7	133,538
430,1	134,281
430,6	124,11
431	123,938
431,5	121,938
431,9	123,424
432,4	116,567
432,8	119,252
433,3	124,31
433,8	133,881
434,2	136,595
434,7	138,281
435,1	147,51
435,6	156,081
436	158,71
436,5	161,967
436,9	167,767
437,4	173,824
437,8	178,624
438,3	184,195
438,8	188,167
439,2	195,052
439,7	202,281
440,1	203,567
440,6	213,824
441	226,395
441,5	231,738
441,9	237,91
442,4	245,652
442,8	255,424
443,3	270,481
443,7	270,31
444,2	280,995
444,7	295,567
445,1	312,967
445,6	326,367
446	339,538
446,5	350,624
446,9	377,824
447,4	386,881
447,8	399,595
448,3	413,995
448,7	425,481
449,2	442,938
449,6	460,11
450,1	468,252
450,6	492,138
451	508,31
451,5	534,224
451,9	556,624
452,4	570,795
452,8	591,024
453,3	613,538
453,7	633,567
454,2	652,538
454,6	661,652
455,1	685,938
455,5	712,852
456	739,024
456,4	761,938
456,9	786,395
457,3	811,881
457,8	839,967
458,3	861,567
458,7	890,11
459,2	912,452
459,6	941,624
460,1	968,91
460,5	996,624
461	1026,367
461,4	1060,367
461,9	1086,538
462,3	1118,224
462,8	1153,51
463,2	1181,91
463,7	1217,367
464,1	1250,538
464,6	1275,681
465	1306,881
465,5	1338,681
466	1367,567
466,4	1404,824
466,9	1438,995
467,3	1468,567
467,8	1511,767
468,2	1553,31
468,7	1595,081
469,1	1636,11
469,6	1668,738
470	1705,452
470,5	1743,51
470,9	1775,51
471,4	1810,881
471,8	1842,967
472,3	1876,081
472,7	1913,824
473,2	1951,452
473,6	1981,795
474,1	2017,424
474,5	2047,624
475	2075,538
475,4	2102,852
475,9	2138,538
476,4	2170,595
476,8	2214,852
477,3	2254,824
477,7	2298,738
478,2	2342,652
478,6	2382,624
479,1	2416,938
479,5	2452,367
480	2487,367
480,4	2515,881
480,9	2539,795
481,3	2566,052
481,8	2594,852
482,2	2628,195
482,7	2652,91
483,1	2677,624
483,6	2704,081
484	2733,795
484,5	2766,452
484,9	2797,138
485,4	2821,167
485,8	2843,881
486,3	2865,767
486,7	2898,281
487,2	2922,481
487,6	2948,338
488,1	2971,024
488,5	2990,824
489	3016,91
489,4	3046,481
489,9	3059,938
490,4	3079,367
490,8	3094,71
491,3	3114,881
491,7	3134,367
492,2	3154,252
492,6	3168,138
493,1	3195,481
493,5	3214,11
494	3233,452
494,4	3244,652
494,9	3268,138
495,3	3282,281
495,8	3302,195
496,2	3311,681
496,7	3323,395
497,1	3332,595
497,6	3354,31
498	3366,852
498,5	3381,11
498,9	3393,91
499,4	3406,595
499,8	3423,224
500,3	3439,281
500,7	3445,91
501,2	3455,995
501,6	3470,538
502,1	3483,224
502,5	3492,652
503	3509,138
503,4	3517,71
503,9	3531,824
504,3	3538,395
504,8	3545,938
505,2	3554,995
505,7	3567,338
506,1	3564,167
506,6	3572,681
507	3575,767
507,5	3581,738
507,9	3593,281
508,4	3597,31
508,8	3599,51
509,3	3612,452
509,7	3616,795
510,2	3623,738
510,6	3631,51
511,1	3638,71
511,5	3646,91
512	3656,138
512,4	3660,881
512,9	3667,652
513,3	3672,281
513,8	3682,738
514,2	3689,395
514,7	3695,195
515,1	3702,195
515,6	3711,424
516	3718,624
516,5	3729,024
516,9	3735,738
517,4	3735,938
517,8	3742,452
518,3	3745,795
518,7	3752,252
519,2	3767,081
519,6	3774,652
520,1	3779,967
520,5	3787,881
521	3782,824
521,4	3792,424
521,9	3793,224
522,3	3794,852
522,8	3800,195
523,2	3808,081
523,7	3810,938
524,1	3825,824
524,6	3831,681
525	3840,31
525,5	3847,195
525,9	3858,224
526,4	3860,595
526,8	3872,11
527,3	3883,595
527,7	3893,481
528,2	3902,281
528,6	3909,567
529,1	3913,252
529,5	3925,51
530	3930,452
530,4	3938,167
530,9	3943,652
531,3	3956,795
531,8	3963,138
532,2	3970,052
532,6	3973,281
533,1	3979,081
533,5	3981,424
534	3982,995
534,4	3984,967
534,9	3998,31
535,3	4010,595
535,8	4026,138
536,2	4037,024
536,7	4048,738
537,1	4064,91
537,6	4073,081
538	4077,652
538,5	4084,995
538,9	4085,138
539,4	4094,31
539,8	4106,767
540,3	4114,338
540,7	4127,367
541,2	4136,51
541,6	4142,395
542,1	4158,595
542,5	4173,138
543	4177,567
543,4	4186,681
543,9	4193,795
544,3	4207,71
544,8	4221,281
545,2	4223,767
545,7	4228,852
546,1	4240,195
546,5	4250,395
547	4254,11
547,4	4257,481
547,9	4259,71
548,3	4274,424
548,8	4280,967
549,2	4288,481
549,7	4291,338
550,1	4303,995
550,6	4314,538
551	4325,795
551,5	4328,567
551,9	4338,11
552,4	4338,052
552,8	4350,367
553,3	4356,252
553,7	4361,138
554,2	4375,252
554,6	4382,995
555,1	4390,767
555,5	4405,681
555,9	4409,995
556,4	4426,195
556,8	4435,824
557,3	4439,595
557,7	4453,795
558,2	4470,195
558,6	4475,452
559,1	4487,167
559,5	4480,652
560	4482,71
560,4	4491,424
560,9	4491,995
561,3	4495,224
561,8	4507,538
562,2	4511,852
562,7	4519,824
563,1	4529,452
563,6	4530,881
564	4535,395
564,4	4537,681
564,9	4539,852
565,3	4544,881
565,8	4554,538
566,2	4553,567
566,7	4564,224
567,1	4565,11
567,6	4564,652
568	4561,595
568,5	4561,224
568,9	4558,91
569,4	4564,395
569,8	4562,252
570,3	4571,081
570,7	4576,424
571,1	4584,795
571,6	4587,31
572	4586,567
572,5	4589,595
572,9	4584,167
573,4	4580,767
573,8	4581,995
574,3	4582,395
574,7	4579,652
575,2	4584,824
575,6	4584,452
576,1	4591,167
576,5	4594,252
576,9	4590,595
577,4	4581,338
577,8	4584,681
578,3	4583,281
578,7	4571,424
579,2	4556,567
579,6	4550,624
580,1	4547,224
580,5	4553,881
581	4546,052
581,4	4544,11
581,9	4545,595
582,3	4549,367
582,7	4541,195
583,2	4537,081
583,6	4519,824
584,1	4514,052
584,5	4499,595
585	4486,738
585,4	4475,167
585,9	4471,052
586,3	4458,824
586,8	4452,595
587,2	4447,11
587,6	4443,852
588,1	4447,024
588,5	4445,338
589	4435,052
589,4	4428,367
589,9	4421,91
590,3	4411,881
590,8	4404,11
591,2	4392,424
591,7	4379,481
592,1	4382,424
592,5	4377,767
593	4371,852
593,4	4365,624
593,9	4355,367
594,3	4355,738
594,8	4353,252
595,2	4341,795
595,7	4336,138
596,1	4327,595
596,6	4321,024
597	4316,167
597,4	4297,852
597,9	4293,881
598,3	4280,51
598,8	4267,624
599,2	4263,081
599,7	4255,138
600,1	4250,624
600,6	4240,652
601	4229,567
601,4	4220,824
601,9	4208,652
602,3	4195,995
602,8	4187,767
603,2	4171,567
603,7	4169,31
604,1	4153,167
604,6	4138,024
605	4134,91
605,4	4123,31
605,9	4110,881
606,3	4102,281
606,8	4086,795
607,2	4077,052
607,7	4069,538
608,1	4058,224
608,6	4049,681
609	4037,652
609,4	4022,681
609,9	4010,681
610,3	3998,138
610,8	3989,852
611,2	3970,967
611,7	3959,338
612,1	3943,281
612,6	3933,881
613	3918,338
613,4	3903,824
613,9	3887,824
614,3	3876,195
614,8	3856,224
615,2	3844,995
615,7	3831,081
616,1	3820,538
616,6	3808,338
617	3786,881
617,4	3766,824
617,9	3758,595
618,3	3740,138
618,8	3725,91
619,2	3709,338
619,7	3696,281
620,1	3683,538
620,5	3669,452
621	3648,881
621,4	3635,367
621,9	3622,024
622,3	3606,91
622,8	3589,252
623,2	3576,881
623,6	3565,281
624,1	3550,31
624,5	3532,11
625	3508,252
625,4	3491,738
625,9	3475,71
626,3	3461,424
626,8	3439,024
627,2	3421,395
627,6	3408,424
628,1	3393,224
628,5	3372,938
629	3355,138
629,4	3334,652
629,9	3323,024
630,3	3308,252
630,7	3288,967
631,2	3272,938
631,6	3262,938
632,1	3237,31
632,5	3224,138
633	3210,452
633,4	3192,852
633,8	3177,795
634,3	3158,367
634,7	3137,624
635,2	3127,71
635,6	3115,51
636,1	3095,052
636,5	3075,11
636,9	3058,595
637,4	3045,424
637,8	3030,567
638,3	3014,338
638,7	2990,395
639,2	2974,11
639,6	2960,91
640	2944,195
640,5	2926,567
640,9	2907,167
641,4	2889,281
641,8	2876,91
642,2	2862,11
642,7	2844,995
643,1	2831,681
643,6	2820,795
644	2808,252
644,5	2800,767
644,9	2786,967
645,3	2777,681
645,8	2766,795
646,2	2745,652
646,7	2723,652
647,1	2706,567
647,6	2682,967
648	2668,91
648,4	2650,51
648,9	2632,681
649,3	2620,052
649,8	2609,11
650,2	2600,224
650,6	2594,452
651,1	2577,11
651,5	2564,824
652	2556,338
652,4	2545,595
652,9	2536,167
653,3	2518,367
653,7	2503,024
654,2	2487,652
654,6	2472,224
655,1	2454,595
655,5	2441,367
655,9	2427,424
656,4	2416,767
656,8	2400,452
657,3	2388,338
657,7	2371,252
658,2	2360,681
658,6	2348,252
659	2327,595
659,5	2316,51
659,9	2302,424
660,4	2281,91
660,8	2268,824
661,2	2251,11
661,7	2235,881
662,1	2235,138
662,6	2219,195
663	2210,538
663,4	2207,481
663,9	2196,538
664,3	2187,938
664,8	2168,338
665,2	2146,567
665,6	2133,167
666,1	2116,11
666,5	2101,452
667	2090,424
667,4	2070,395
667,9	2064,824
668,3	2052,624
668,7	2031,995
669,2	2015,795
669,6	2001,195
670,1	1985,31
670,5	1972,224
670,9	1955,624
671,4	1936,452
671,8	1929,595
672,3	1920,795
672,7	1906,51
673,1	1893,31
673,6	1879,167
674	1867,224
674,5	1861,595
674,9	1847,138
675,3	1831,538
675,8	1822,195
676,2	1804,281
676,7	1795,11
677,1	1781,51
677,5	1767,224
678	1757,538
678,4	1747,195
678,9	1735,938
679,3	1729,881
679,7	1721,052
680,2	1707,795
680,6	1698,195
681,1	1687,224
681,5	1677,71
681,9	1657,367
682,4	1646,881
682,8	1638,052
683,3	1631,852
683,7	1625,51
684,1	1612,595
684,6	1597,852
685	1590,767
685,5	1578,567
685,9	1563,938
686,3	1550,51
686,8	1534,51
687,2	1526,767
687,7	1523,167
688,1	1515,995
688,5	1509,138
689	1499,71
689,4	1494,281
689,9	1487,052
690,3	1480,795
690,7	1465,595
691,2	1450,91
691,6	1438,452
692	1429,31
692,5	1418,538
692,9	1405,738
693,4	1390,995
693,8	1385,138
694,2	1378,71
694,7	1371,595
695,1	1368,538
695,6	1358,795
696	1348,881
696,4	1339,081
696,9	1328,167
697,3	1317,795
697,8	1307,71
698,2	1295,024
698,6	1289,281
699,1	1285,338
699,5	1270,824
699,9	1264,395
700,4	1256,081
700,8	1249,767
701,3	1238,395
701,7	1227,595
702,1	1219,395
702,6	1221,51
703	1214,424
703,5	1205,424
703,9	1193,91
704,3	1183,367
704,8	1177,995
705,2	1167,51
705,6	1156,224
706,1	1146,595
706,5	1142,967
707	1137,052
707,4	1135,538
707,8	1120,767
708,3	1110,795
708,7	1098,11
709,2	1093,795
709,6	1081,967
710	1073,624
710,5	1066,852
710,9	1062,938
711,3	1054,738
711,8	1053,538
712,2	1039,538
712,7	1035,71
713,1	1026,795
713,5	1016,824
714	1012,795
714,4	1010,081
714,8	997,681
715,3	997,452
715,7	988,052
716,2	984,167
716,6	976,595
717	963,795
717,5	951,71
717,9	948,11
718,3	936,595
718,8	935,11
719,2	925,395
719,7	919,567
720,1	914,395
720,5	911,481
721	904,338
721,4	900,967
721,8	892,824
722,3	887,052
722,7	874,11
723,2	867,967
723,6	860,367
724	854,738
724,5	845,681
724,9	842,681
725,3	835,338
725,8	835,652
726,2	828,452
726,7	827,224
727,1	820,424
727,5	813,424
728	803,995
728,4	802,052
728,8	797,024
729,3	789,91
729,7	780,567
730,1	773,852
730,6	764,71
731	758,195
731,5	752,51
731,9	748,052
732,3	746,681
732,8	739,795
733,2	741,11
733,6	744,224
734,1	741,681
734,5	735,31
734,9	725,538
735,4	724,481
735,8	718,795
736,3	708,852
736,7	705,367
737,1	702,595
737,6	698,138
738	700,567
738,4	687,567
738,9	685,795
739,3	683,452
739,7	676,652
740,2	671,51
740,6	670,567
741,1	660,91
741,5	663,367
741,9	660,795
742,4	653,995
742,8	649,624
743,2	639,395
743,7	628,824
744,1	627,538
744,5	623,852
745	615,31
745,4	615,595
745,8	608,995
746,3	611,852
746,7	613,681
747,2	613,224
747,6	604,967
748	604,71
748,5	598,195
748,9	593,595
749,3	583,252
749,8	576,052
750,2	569,652
750,6	570,281
751,1	568,281
751,5	565,481
751,9	560,338
752,4	561,224
752,8	560,367
753,3	554,795
753,7	545,91
754,1	537,51
754,6	533,852
755	535,024
755,4	534,71
755,9	524,881
756,3	520,852
756,7	518,052
757,2	516,881
757,6	513,281
758	507,424
758,5	499,138
758,9	497,824
759,3	488,967
759,8	489,595
760,2	481,138
760,6	477,91
761,1	474,195
761,5	474,624
761,9	474,881
762,4	475,195
762,8	467,567
763,3	466,252
763,7	457,681
764,1	458,91
764,6	449,767
765	446,881
765,4	443,195
765,9	441,881
766,3	440,624
766,7	437,995
767,2	430,881
767,6	429,338
768	424,852
768,5	425,852
768,9	428,195
769,3	424,91
769,8	426,652
770,2	423,595
770,6	423,595
771,1	418,195
771,5	414,538
771,9	413,224
772,4	413,395
772,8	408,938
773,2	404,938
773,7	402,51
774,1	402,738
774,5	394,224
775	380,51
775,4	375,224
775,8	372,081
776,3	372,738
776,7	370,367
777,1	369,224
777,6	370,738
778	373,881
778,4	373,424
778,9	372,481
779,3	370,024
779,7	363,881
780,2	361,595
780,6	358,795
781	354,281
781,5	350,338
781,9	350,281
782,3	347,31
782,8	352,51
783,2	344,995
783,6	345,081
784,1	342,024
784,5	336,852
784,9	331,395
785,4	328,824
785,8	322,595
786,2	321,681
786,7	318,395
787,1	320,052
787,5	321,281
788	319,91
788,4	320,795
788,8	317,71
789,3	315,995
789,7	314,538
790,1	311,767
790,6	307,367
791	307,395
791,4	304,367
791,9	299,71
792,3	299,624
792,7	293,738
793,2	289,967
793,6	294,252
794	292,91
794,5	289,738
794,9	289,624
795,3	288,338
795,8	288,595
796,2	285,567
796,6	280,91
797,1	268,081
797,5	267,652
797,9	267,367
798,4	258,052
798,8	255,081
799,2	255,11
799,7	253,452
800,1	258,538
800,5	254,538
801	250,595
801,4	258,452
801,8	257,595
802,2	256,224
802,7	254,881
803,1	255,367
803,5	255,595
804	257,167
804,4	253,738
804,8	254,881
805,3	254,967
805,7	250,31
806,1	245,938
806,6	240,624
807	235,51
807,4	235,31
807,9	231,881
808,3	228,767
808,7	226,71
809,2	229,31
809,6	228,538
810	220,995
810,4	213,024
810,9	214,195
811,3	213,995
811,7	215,767
812,2	212,281
812,6	211,252
813	213,995
813,5	214,138
813,9	208,167
814,3	202,252
814,8	198,452
815,2	198,595
815,6	196,11
816,1	197,538
816,5	199,452
816,9	195,738
817,3	197,252
817,8	198,224
818,2	193,281
818,6	195,252
819,1	195,595
819,5	191,624
819,9	191,195
820,4	189,624
820,8	183,995
821,2	185,452
821,7	179,595
822,1	173,395
822,5	171,167
822,9	176,167
823,4	175,31
823,8	176,738
824,2	174,967
824,7	178,424
825,1	175,567
825,5	173,424
826	169,452
826,4	169,51
826,8	169,624
827,3	165,224
827,7	161,881
828,1	163,224
828,5	160,967
829	162,052
829,4	150,995
829,8	147,024
830,3	147,195
830,7	144,995
831,1	149,71
831,6	154,395
832	151,224
832,4	155,852
832,8	153,195
833,3	152,795
833,7	151,167
834,1	147,452
834,6	140,91
835	140,11
835,4	139,738
835,8	138,081
836,3	137,31
836,7	140,452
837,1	136,538
837,6	138,652
838	131,881
838,4	132,852
838,9	134,424
839,3	137,567
839,7	136,852
840,1	132,938
840,6	135,538
841	141,795
841,4	138,91
841,9	136,31
842,3	130,795
842,7	128,052
843,1	135,024
843,6	132,452
844	128,11
844,4	128,681
844,9	125,71
845,3	126,31
845,7	121,738
846,2	120,395
846,6	114,738
847	115,481
847,4	110,195
847,9	112,081
848,3	111,51
848,7	112,738
849,2	107,052
849,6	107,024
850	105,938
850,4	110,338
850,9	110,881
851,3	105,824
851,7	106,738
852,2	107,738
852,6	107,052
853	103,252
853,4	98,567
853,9	98,452
854,3	100,395
854,7	98,624
855,2	96,595
855,6	93,738
856	94,595
856,4	95,824
856,9	95,91
857,3	93,938
857,7	91,881
858,2	89,51
858,6	90,881
859	90,195
859,4	91,481
859,9	89,31
860,3	85,738
860,7	82,938
861,1	84,967
861,6	90,138
862	87,71
862,4	81,024
862,9	77,481
863,3	76,995
863,7	81,71
864,1	80,91
864,6	75,567
865	79,024
865,4	84,224
865,9	85,824
866,3	88,195
866,7	89,424
867,1	81,224
867,6	84,252
868	87,852
868,4	84,11
868,8	83,224
869,3	87,652
869,7	80,624
870,1	89,681
870,6	83,595
871	130,138
871,4	131,31
871,8	131,51
872,3	125,224
872,7	127,595
873,1	126,624
873,5	131,652
874	74,481
874,4	71,824
874,8	75,281
875,3	74,424
875,7	74,252
876,1	73,024
876,5	65,538
877	65,367
877,4	65,424
877,8	63,338
878,2	61,881
878,7	63,11
879,1	57,967
879,5	59,852
879,9	63,338
880,4	67,252
880,8	66,795
881,2	70,138
881,7	67,338
882,1	68,681
882,5	70,995
882,9	71,91
883,4	69,11
883,8	66,338
884,2	61,481
884,6	61,395
885,1	63,824
885,5	63,11
885,9	63,281
886,3	61,51
886,8	59,395
887,2	60,91
887,6	58,195
888	55,052
888,5	52,281
888,9	50,881
889,3	48,824
889,8	52,224
890,2	48,052
890,6	48,167
891	46,967
891,5	46,395
891,9	43,424
892,3	45,881
892,7	45,681
893,2	50,167
893,6	48,252
894	50,481
894,4	50,024
894,9	50,967
895,3	48,595
895,7	43,652
896,1	42,595
896,6	45,51
897	40,824
897,4	44,138
897,8	44,424
898,3	47,31
898,7	49,11
899,1	49,281
899,5	46,824
900	52,681
900,4	52,338
900,8	51,224
901,2	49,052
901,7	45,824
902,1	50,11
902,5	52,338
902,9	47,995
903,4	44,881
903,8	44,081
904,2	45,281
904,6	49,852
905,1	48,081
905,5	46,395
905,9	46,452
906,3	43,167
906,8	42,395
907,2	40,481
907,6	43,538
908	38,795
908,5	40,824
908,9	43,081
909,3	48,91
909,7	48,91
910,2	53,71
910,6	47,538
911	44,538
911,4	38,595
911,9	33,738
912,3	26,738
912,7	25,452
913,1	20,538
913,6	20,881
914	27,795
914,4	27,367
914,8	31,195
915,3	33,138
915,7	38,395
916,1	39,767
916,5	41,967
916,9	34,967
917,4	37,081
917,8	33,338
918,2	33,995
918,6	32,224
919,1	28,452
919,5	26,824
919,9	32,052
920,3	34,51
920,8	40,881
921,2	39,481
921,6	40,224
922	45,11
922,5	44,652
922,9	41,481
923,3	39,738
923,7	34,452
924,2	39,595
924,6	36,481
925	30,824
925,4	32,91
925,8	39,938
926,3	41,452
926,7	42,195
927,1	40,71
927,5	40,91
928	44,567
928,4	43,31
928,8	37,138
929,2	35,624
929,7	38,967
930,1	39,767
930,5	41,081
930,9	36,11
931,3	34,567
931,8	34,452
932,2	35,538
932,6	32,052
933	26,681
933,5	28,567
933,9	29,452
934,3	32,824
934,7	28,281
935,2	32,195
935,6	31,595
936	34,967
936,4	30,967
936,8	34,195
937,3	31,767
937,7	35,167
938,1	22,824
938,5	17,395
939	18,795
939,4	17,281
939,8	15,395
940,2	13,652
940,6	12,452
941,1	20,767
941,5	30,281
941,9	29,824
942,3	29,367
942,8	33,167
943,2	37,224
943,6	39,138
944	35,824
944,4	34,938
944,9	31,538
945,3	30,11
945,7	25,395
946,1	23,738
946,6	21,424
947	22,624
947,4	18,995
947,8	20,224
948,2	22,652
948,7	21,138
949,1	19,681
949,5	21,081
949,9	21,938
950,3	22,881
950,8	25,195
951,2	27,71
951,6	29,424
952	25,224
952,5	23,995
952,9	22,881
953,3	20,767
953,7	15,024
954,1	13,11
954,6	11,538
955	16,51
955,4	24,195
955,8	30,71
956,2	37,024
956,7	38,024
957,1	37,138
957,5	38,252
957,9	37,738
958,3	28,281
958,8	21,681
959,2	15,024
959,6	13,138
960	15,452
960,5	12,652
960,9	15,195
961,3	16,795
961,7	16,767
962,1	18,767
962,6	22,395
963	22,081
963,4	25,881
963,8	21,852
964,2	25,367
964,7	23,452
965,1	17,738
965,5	21,452
965,9	22,71
966,3	17,71
966,8	15,652
967,2	13,681
967,6	16,195
968	20,652
968,4	17,081
968,9	12,767
969,3	17,138
969,7	17,052
970,1	17,138
970,5	15,995
971	14,567
971,4	14,052
971,8	14,138
972,2	19,024
972,6	20,31
973,1	18,367
973,5	18,081
973,9	19,595
974,3	21,795
974,7	20,452
975,2	19,852
975,6	20,224
976	20,424
976,4	20,452
976,8	17,567
977,3	14,51
977,7	19,195
978,1	14,967
978,5	12,024
978,9	11,024
979,4	11,881
979,8	14,281
980,2	13,481
980,6	7,824
981	5,624
981,5	7,081
981,9	11,395
982,3	12,167
982,7	8,167
983,1	7,195
983,6	8,767
984	7,624
984,4	12,852
984,8	13,995
985,2	11,595
985,6	15,481
986,1	14,538
986,5	17,738
986,9	22,624
987,3	16,824
987,7	13,595
988,2	17,224
988,6	16,595
989	17,567
989,4	20,71
989,8	19,11
990,3	19,967
990,7	23,595
991,1	23,824
991,5	24,995
991,9	27,538
992,3	22,595
992,8	22,767
993,2	21,881
993,6	16,595
994	13,938
994,4	19,195
994,9	15,91
995,3	19,881
995,7	20,767
996,1	23,281
996,5	23,538
996,9	18,224
997,4	13,567
997,8	15,71
998,2	11,852
998,6	17,081
999	18,595
999,5	18,967
999,9	25,31
1000,3	24,71
1000,7	23,567
1001,1	20,31
1001,5	16,567
1002	13,767
1002,4	15,424
1002,8	13,795
1003,2	14,91
1003,6	18,967
1004	22,51
1004,5	19,91
1004,9	22,367
1005,3	22,767
1005,7	23,052
1006,1	23,938
1006,6	18,595
1007	16,367
1007,4	11,538
1007,8	13,967
1008,2	15,738
1008,6	16,338
1009,1	14,081
1009,5	17,395
1009,9	20,452
1010,3	26,424
1010,7	22,852
1011,1	21,567
1011,6	21,538
1012	21,681
1012,4	24,395
1012,8	23,881
1013,2	25,624
1013,6	23,567
1014,1	18,652
1014,5	17,395
1014,9	19,767
1015,3	16,538
1015,7	17,338
1016,1	13,252
1016,6	11,795
1017	17,538
1017,4	16,567
1017,8	10,824
1018,2	13,767
1018,6	13,967
1019,1	15,024
1019,5	15,967
1019,9	12,824
1020,3	15,567
1020,7	18,11
1021,1	13,995
1021,6	13,71
1022	16,367
1022,4	20,881
1022,8	19,31
1023,2	16,624
1023,6	15,024
1024,1	14,824
1024,5	12,081
1024,9	11,738
1025,3	8,995
1025,7	15,395
1026,1	18,052
1026,6	25,71
1027	27,738
1027,4	35,052
1027,8	29,967
1028,2	22,767
1028,6	18,138
1029	19,052
1029,5	14,481
1029,9	15,51
1030,3	14,624
1030,7	18,281
1031,1	26,795
1031,5	30,224
1032	28,138
1032,4	29,31
1032,8	28,91
1033,2	22,967
1033,6	22,224
1034	24,395
1034,4	19,824
1034,9	19,938
1035,3	16,795
1035,7	13,938
1036,1	14,71
1036,5	17,681
1036,9	17,767
1037,4	20,024
1037,8	25,024
1038,2	28,795
1038,6	30,824
1039	30,252
1039,4	25,881
1039,8	17,795
1040,3	24,852
1040,7	20,024
1041,1	17,367
1041,5	19,31
1041,9	17,824
1042,3	15,681
1042,7	17,052
1043,2	9,624
1043,6	16,452
1044	19,652
1044,4	17,024
1044,8	19,224
1045,2	25,567
1045,6	28,195
1046,1	26,91
1046,5	21,567
1046,9	19,738
1047,3	22,852
1047,7	20,481
1048,1	20,138
1048,5	23,767
1049	24,281
1049,4	21,138
1049,8	18,995
1050,2	16,195
1050,6	16,795
1051	11,538
1051,4	8,881
1051,9	7,367
1052,3	11,224
1052,7	12,624
1053,1	11,624
1053,5	13,995
1053,9	18,081
1054,3	15,852
1054,8	20,281
1055,2	15,967
1055,6	19,11
1056	19,938
1056,4	23,252
1056,8	21,595
1057,2	21,481
1057,6	22,395
1058,1	26,681
1058,5	24,31
1058,9	23,681
1059,3	18,024
1059,7	16,595
1060,1	19,71
1060,5	15,652
1061	9,167
1061,4	6,11
1061,8	6,481
1062,2	7,052
1062,6	13,595
1063	10,738
1063,4	13,395
1063,8	18,738
1064,3	19,224
1064,7	22,452
1065,1	23,652
1065,5	21,452
1065,9	24,938
1066,3	25,367
1066,7	24,824
1067,1	21,738
1067,6	20,31
1068	20,824
1068,4	16,51
1068,8	11,767
1069,2	6,51
1069,6	4,195
1070	13,195
1070,4	14,795
1070,9	18,195
1071,3	22,824
1071,7	27,71
1072,1	30,252
1072,5	32,424
1072,9	26,567
1073,3	25,081
1073,7	22,71
1074,2	17,824
1074,6	13,224
1075	13,51
1075,4	14,538
1075,8	15,395
1076,2	13,138
1076,6	10,052
1077	8,281
1077,5	11,51
1077,9	9,31
1078,3	3,738
1078,7	-0,376
1079,1	2,052
1079,5	1,11
1079,9	4,452
1080,3	3,167
1080,7	4,795
1081,2	10,567
1081,6	9,767
1082	10,167
1082,4	10,624
1082,8	11,681
1083,2	15,738
1083,6	16,91
1084	16,538
1084,5	23,795
1084,9	18,538
1085,3	20,91
1085,7	19,424
1086,1	12,081
1086,5	5,795
1086,9	3,51
1087,3	2,367
1087,7	4,31
1088,2	3,081
1088,6	3,938
1089	7,738
1089,4	13,824
1089,8	16,595
1090,2	15,367
1090,6	17,395
1091	18,481
1091,4	20,138
1091,9	21,91
1092,3	23,538
1092,7	21,052
1093,1	19,967
1093,5	18,51
1093,9	17,681
1094,3	14,681
1094,7	14,538
1095,1	11,138
1095,5	8,967
1096	8,938
1096,4	7,995
1096,8	7,967
1097,2	9,481
1097,6	7,367
1098	9,767
1098,4	8,824
1098,8	8,51
1099,2	9,852
1099,6	8,624
1100,1	9,51
1100,5	12,51
1100,9	12,195
1101,3	13,595
1101,7	15,481
1102,1	18,567
1102,5	16,052
1102,9	11,995
1103,3	9,395
1103,7	6,738
1104,2	8,595
1104,6	11,224
1105	12,024
1105,4	14,91
1105,8	16,024
1106,2	13,338
1106,6	12,967
1107	11,595
1107,4	8,2
1107,8	2,167
1108,3	0,367
