Data from Subt2_00038.txt Node
Date: Mon Aug 28 13:16:41 MSK 2023
User: vat
Spectrometer: MAYP114033
Trigger mode: 0
Integration Time (sec): 1,000000E0
Scans to average: 5
Electric dark correction enabled: true
Nonlinearity correction enabled: false
Boxcar width: 3
XAxis mode: Wavelengths
Number of Pixels in Spectrum: 2068
>>>>>Begin Spectral Data<<<<<
199,4	1,183
199,9	4,393
200,4	3,867
200,8	6,062
201,3	6,862
201,8	10,49
202,2	11,119
202,7	10,948
203,2	12,719
203,6	13,833
204,1	14,748
204,6	18,919
205	17,405
205,5	20,776
206	22,062
206,4	18,548
206,9	20,262
207,4	19,862
207,8	16,69
208,3	17,976
208,8	18,69
209,2	23,49
209,7	20,233
210,2	15,776
210,6	15,948
211,1	14,976
211,5	19,833
212	17,976
212,5	14,833
212,9	20,29
213,4	24,605
213,9	26,833
214,3	24,976
214,8	18,062
215,3	14,033
215,7	16,205
216,2	13,919
216,7	12,348
217,1	9,748
217,6	12,662
218,1	11,719
218,5	12,119
219	8,148
219,5	11,233
219,9	10,005
220,4	8,376
220,9	6,205
221,3	5,148
221,8	8,662
222,3	13,69
222,7	11,862
223,2	15,376
223,6	19,862
224,1	22,776
224,6	28,033
225	30,376
225,5	27,205
226	30,148
226,4	29,09
226,9	24,776
227,4	24,548
227,8	26,29
228,3	24,319
228,8	23,862
229,2	25,49
229,7	27,262
230,2	28,862
230,6	27,719
231,1	26,719
231,5	26,205
232	29,833
232,5	32,233
232,9	23,719
233,4	22,233
233,9	24,205
234,3	18,69
234,8	19,119
235,3	11,948
235,7	2,605
236,2	6,662
236,7	6,09
237,1	9,09
237,6	11,005
238,1	14,29
238,5	17,062
239	19,319
239,4	21,69
239,9	21,519
240,4	15,033
240,8	17,948
241,3	20,09
241,8	21,748
242,2	22,833
242,7	27,976
243,2	29,748
243,6	38,405
244,1	31,49
244,6	25,462
245	29,205
245,5	30,862
245,9	23,348
246,4	21,262
246,9	13,89
247,3	14,662
247,8	13,062
248,3	11,976
248,7	11,862
249,2	14,119
249,7	17,405
250,1	17,605
250,6	20,862
251	20,576
251,5	20,89
252	16,376
252,4	17,805
252,9	15,348
253,4	16,348
253,8	15,89
254,3	16,033
254,8	15,09
255,2	17,919
255,7	18,205
256,1	19,576
256,6	25,433
257,1	26,662
257,5	29,462
258	24,29
258,5	22,405
258,9	19,576
259,4	21,205
259,9	12,119
260,3	11,49
260,8	10,919
261,2	15,89
261,7	19,748
262,2	22,662
262,6	21,176
263,1	24,862
263,6	21,89
264	22,376
264,5	20,548
264,9	18,862
265,4	14,948
265,9	14,405
266,3	16,376
266,8	21,919
267,3	20,376
267,7	18,548
268,2	15,433
268,7	17,09
269,1	17,119
269,6	18,405
270	19,176
270,5	19,233
271	24,89
271,4	30,205
271,9	34,176
272,4	37,29
272,8	35,833
273,3	31,605
273,7	29,09
274,2	25,205
274,7	18,09
275,1	16,262
275,6	16,376
276,1	13,148
276,5	13,919
277	19,119
277,4	21,862
277,9	26,148
278,4	24,29
278,8	22,662
279,3	24,176
279,8	23,405
280,2	17,519
280,7	9,405
281,1	10,662
281,6	11,833
282,1	11,262
282,5	10,662
283	11,262
283,4	15,576
283,9	22,29
284,4	19,09
284,8	17,548
285,3	19,748
285,8	23,29
286,2	23,29
286,7	24,205
287,1	21,405
287,6	25,49
288,1	30,862
288,5	27,29
289	23,862
289,5	20,576
289,9	25,005
290,4	28,576
290,8	27,319
291,3	23,69
291,8	27,633
292,2	27,719
292,7	29,062
293,1	25,576
293,6	20,462
294,1	24,976
294,5	25,319
295	22,976
295,5	22,576
295,9	23,376
296,4	23,862
296,8	26,89
297,3	18,633
297,8	11,433
298,2	8,605
298,7	8,005
299,1	10,462
299,6	5,405
300,1	5,49
300,5	9,69
301	16,29
301,5	19,748
301,9	21,948
302,4	19,776
302,8	22,205
303,3	24,519
303,8	25,433
304,2	22,005
304,7	21,176
305,1	17,976
305,6	20,005
306,1	18,919
306,5	19,862
307	15,948
307,4	18,662
307,9	17,376
308,4	17,748
308,8	17,833
309,3	23,205
309,8	21,519
310,2	25,319
310,7	27,262
311,1	25,976
311,6	30,976
312,1	29,205
312,5	23,062
313	17,69
313,4	17,405
313,9	15,519
314,4	19,49
314,8	18,69
315,3	20,633
315,7	19,633
316,2	22,89
316,7	17,405
317,1	14,49
317,6	12,49
318	11,319
318,5	12,262
319	16,233
319,4	16,205
319,9	19,548
320,3	22,748
320,8	26,719
321,3	22,776
321,7	17,833
322,2	17,29
322,6	16,005
323,1	17,776
323,6	16,633
324	13,319
324,5	15,319
324,9	18,862
325,4	18,033
325,9	19,433
326,3	15,776
326,8	17,376
327,2	17,548
327,7	19,033
328,2	20,119
328,6	21,576
329,1	16,433
329,5	17,062
330	14,49
330,5	14,233
330,9	13,376
331,4	12,29
331,8	12,862
332,3	18,69
332,8	20,976
333,2	24,49
333,7	20,176
334,1	22,033
334,6	19,633
335,1	20,49
335,5	21,633
336	25,033
336,4	25,862
336,9	28,519
337,4	30,348
337,8	32,033
338,3	33,148
338,7	30,833
339,2	30,576
339,7	29,919
340,1	29,462
340,6	23,033
341	25,405
341,5	21,805
342	29,833
342,4	25,89
342,9	24,548
343,3	26,29
343,8	28,919
344,2	30,062
344,7	32,29
345,2	24,119
345,6	28,148
346,1	28,862
346,5	28,49
347	28,033
347,5	24,748
347,9	23,69
348,4	26,633
348,8	22,033
349,3	29,662
349,8	32,919
350,2	38,262
350,7	40,805
351,1	43,433
351,6	50,205
352	58,605
352,5	60,633
353	66,29
353,4	76,005
353,9	85,919
354,3	99,633
354,8	109,519
355,3	126,119
355,7	142,919
356,2	168,233
356,6	196,148
357,1	231,862
357,5	270,176
358	316,119
358,5	365,919
358,9	424,348
359,4	491,376
359,8	568,29
360,3	653,319
360,8	749,548
361,2	859,49
361,7	982,09
362,1	1111,005
362,6	1254,09
363	1404,862
363,5	1570,148
364	1746,748
364,4	1924,662
364,9	2100,233
365,3	2280,719
365,8	2450,862
366,3	2609,433
366,7	2753,176
367,2	2873,919
367,6	2977,319
368,1	3061,805
368,5	3120,49
369	3151,633
369,5	3159,748
369,9	3139,862
370,4	3097,548
370,8	3031,576
371,3	2938,148
371,7	2836,205
372,2	2727,29
372,7	2595,833
373,1	2463,662
373,6	2318,062
374	2170,776
374,5	2031,376
374,9	1890,062
375,4	1746,662
375,9	1618,319
376,3	1490,005
376,8	1378,062
377,2	1270,405
377,7	1173,433
378,2	1076,605
378,6	989,49
379,1	908,405
379,5	832,462
380	760,49
380,4	697,519
380,9	642,805
381,4	596,433
381,8	552,405
382,3	507,433
382,7	469,062
383,2	436,576
383,6	404,948
384,1	375,948
384,6	349,433
385	325,205
385,5	302,405
385,9	285,776
386,4	271,748
386,8	253,405
387,3	233,576
387,7	213,319
388,2	191,976
388,7	181,89
389,1	163,69
389,6	151,776
390	145,148
390,5	136,862
390,9	127,405
391,4	119,605
391,9	113,405
392,3	114,005
392,8	107,319
393,2	100,062
393,7	89,519
394,1	88,462
394,6	88,605
395,1	84,833
395,5	77,576
396	72,948
396,4	70,433
396,9	72,976
397,3	68,233
397,8	62,205
398,2	59,69
398,7	60,49
399,2	57,748
399,6	55,29
400,1	50,49
400,5	53,176
401	58,29
401,4	58,09
401,9	56,376
402,4	55,919
402,8	54,376
403,3	53,005
403,7	48,062
404,2	46,29
404,6	46,119
405,1	45,89
405,5	42,29
406	45,062
406,5	47,405
406,9	48,919
407,4	45,09
407,8	46,833
408,3	44,833
408,7	44,433
409,2	43,519
409,6	42,519
410,1	42,576
410,6	43,033
411	38,176
411,5	40,748
411,9	48,605
412,4	52,119
412,8	53,519
413,3	55,233
413,7	64,262
414,2	68,262
414,7	68,29
415,1	67,176
415,6	63,433
416	67,662
416,5	70,976
416,9	67,49
417,4	73,205
417,8	76,89
418,3	77,833
418,8	81,348
419,2	83,148
419,7	85,69
420,1	92,062
420,6	87,148
421	90,719
421,5	95,29
421,9	99,976
422,4	104,262
422,8	104,319
423,3	95,605
423,8	100,748
424,2	97,805
424,7	92,748
425,1	89,862
425,6	84,576
426	81,348
426,5	80,805
426,9	76,662
427,4	75,29
427,9	72,29
428,3	70,09
428,8	69,033
429,2	67,633
429,7	69,319
430,1	65,49
430,6	65,633
431	70,833
431,5	67,576
431,9	69,548
432,4	65,719
432,8	67,262
433,3	72,976
433,8	74,205
434,2	67,833
434,7	72,462
435,1	71,776
435,6	77,948
436	76,833
436,5	69,405
436,9	70,09
437,4	71,862
437,8	69,605
438,3	69,062
438,8	68,205
439,2	71,833
439,7	79,548
440,1	73,49
440,6	75,548
441	73,776
441,5	72,462
441,9	72,862
442,4	67,805
442,8	69,29
443,3	72,719
443,7	71,776
444,2	75,062
444,7	82,09
445,1	87,405
445,6	98,119
446	101,09
446,5	106,176
446,9	111,519
447,4	116,605
447,8	115,376
448,3	115,833
448,7	109,49
449,2	107,262
449,6	107,148
450,1	111,005
450,6	113,548
451	119,09
451,5	127,633
451,9	137,862
452,4	141,319
452,8	151,748
453,3	154,262
453,7	162,376
454,2	165,662
454,6	160,805
455,1	165,805
455,5	171,919
456	177,233
456,4	186,748
456,9	187,548
457,3	193,862
457,8	204,405
458,3	213,176
458,7	218,49
459,2	222,09
459,6	224,462
460,1	235,405
460,5	243,005
461	243,805
461,4	242,405
461,9	250,548
462,3	255,548
462,8	261,119
463,2	266,976
463,7	268,348
464,1	277,633
464,6	283,776
465	292,805
465,5	298,005
466	303,662
466,4	306,948
466,9	319,176
467,3	326,29
467,8	339,033
468,2	345,862
468,7	354,605
469,1	361,919
469,6	369,605
470	375,548
470,5	383,433
470,9	384,633
471,4	393,948
471,8	396,862
472,3	402,348
472,7	409,319
473,2	415,776
473,6	424,176
474,1	436,576
474,5	441,548
475	450,833
475,4	463,005
475,9	470,176
476,4	475,29
476,8	473,633
477,3	478,148
477,7	479,719
478,2	484,662
478,6	487,205
479,1	486,49
479,5	491,205
480	503,062
480,4	511,719
480,9	519,976
481,3	526,976
481,8	532,605
482,2	535,748
482,7	540,405
483,1	543,862
483,6	535,748
484	537,605
484,5	534,862
484,9	536,833
485,4	542,09
485,8	541,49
486,3	539,948
486,7	545,776
487,2	546,348
487,6	549,519
488,1	548,205
488,5	552,833
489	557,062
489,4	557,005
489,9	558,576
490,4	561,833
490,8	564,062
491,3	567,262
491,7	564,633
492,2	563,348
492,6	564,09
493,1	565,233
493,5	556,119
494	552,29
494,4	550,833
494,9	555,376
495,3	552,433
495,8	553,348
496,2	548,49
496,7	549,948
497,1	552,09
497,6	550,862
498	543,662
498,5	539,748
498,9	539,605
499,4	539,805
499,8	543,776
500,3	545,233
500,7	544,262
501,2	541,405
501,6	539,119
502,1	533,233
502,5	528,033
503	519,49
503,4	512,862
503,9	505,633
504,3	502,005
504,8	498,405
505,2	497,405
505,7	493,205
506,1	492,062
506,6	487,776
507	485,805
507,5	484,748
507,9	479,89
508,4	472,919
508,8	469,319
509,3	463,948
509,7	458,062
510,2	450,376
510,6	442,948
511,1	441,748
511,5	440,919
512	434,376
512,4	420,862
512,9	415,433
513,3	408,176
513,8	403,919
514,2	398,49
514,7	391,376
515,1	390,605
515,6	394,462
516	387,805
516,5	388,062
516,9	388,519
517,4	380,433
517,8	374,833
518,3	371,176
518,7	367,548
519,2	368,748
519,6	360,662
520,1	353,005
520,5	353,633
521	347,805
521,4	337,462
521,9	330,348
522,3	324,462
522,8	321,748
523,2	315,862
523,7	312,662
524,1	309,49
524,6	310,976
525	307,833
525,5	304,29
525,9	306,776
526,4	302,833
526,8	294,376
527,3	290,805
527,7	284,433
528,2	278,462
528,6	280,119
529,1	271,833
529,5	267,433
530	269,09
530,4	259,862
530,9	258,805
531,3	263,262
531,8	252,176
532,2	247,519
532,6	242,519
533,1	236,548
533,5	243,776
534	240,462
534,4	236,29
534,9	237,548
535,3	238,605
535,8	241,319
536,2	241,576
536,7	234,29
537,1	224,519
537,6	219,433
538	217,09
538,5	215,09
538,9	209,776
539,4	205,948
539,8	206,605
540,3	211,633
540,7	212,605
541,2	207,633
541,6	202,462
542,1	198,919
542,5	198,09
543	195,376
543,4	190,205
543,9	187,233
544,3	184,033
544,8	184,548
545,2	184,633
545,7	185,519
546,1	181,176
546,5	181,176
547	178,319
547,4	173,805
547,9	177,405
548,3	178,776
548,8	172,376
549,2	169,205
549,7	171,576
550,1	167,605
550,6	170,319
551	162,033
551,5	154,576
551,9	156,376
552,4	154,519
552,8	150,976
553,3	151,462
553,7	154,662
554,2	152,376
554,6	156,09
555,1	150,119
555,5	152,148
555,9	150,062
556,4	151,148
556,8	148,148
557,3	150,29
557,7	147,805
558,2	147,69
558,6	150,148
559,1	150,49
559,5	148,69
560	142,776
560,4	140,062
560,9	142,262
561,3	144,548
561,8	141,062
562,2	138,148
562,7	133,633
563,1	136,119
563,6	134,862
564	135,319
564,4	132,805
564,9	129,462
565,3	127,148
565,8	126,319
566,2	121,348
566,7	122,605
567,1	121,776
567,6	119,633
568	120,862
568,5	121,262
568,9	122,205
569,4	124,69
569,8	117,433
570,3	112,576
570,7	111,005
571,1	108,69
571,6	107,033
572	107,376
572,5	103,548
572,9	105,633
573,4	106,319
573,8	107,233
574,3	105,176
574,7	112,062
575,2	113,776
575,6	118,405
576,1	119,519
576,5	119,548
576,9	116,948
577,4	122,176
577,8	114,49
578,3	107,548
578,7	102,748
579,2	103,919
579,6	98,919
580,1	101,548
580,5	102,319
581	102,319
581,4	107,862
581,9	109,148
582,3	110,09
582,7	113,805
583,2	112,662
583,6	107,633
584,1	111,262
584,5	111,148
585	113,748
585,4	110,69
585,9	108,519
586,3	106,719
586,8	103,119
587,2	100,462
587,6	95,719
588,1	95,662
588,5	91,519
589	92,633
589,4	91,862
589,9	94,576
590,3	96,233
590,8	98,576
591,2	93,69
591,7	96,033
592,1	92,948
592,5	93,605
593	92,405
593,4	88,719
593,9	83,662
594,3	85,662
594,8	87,262
595,2	88,09
595,7	83,062
596,1	84,805
596,6	82,405
597	87,433
597,4	86,548
597,9	85,148
598,3	88,89
598,8	93,776
599,2	90,405
599,7	96,319
600,1	98,405
600,6	99,833
601	98,805
601,4	94,062
601,9	93,662
602,3	100,433
602,8	100,405
603,2	93,919
603,7	91,576
604,1	90,633
604,6	91,005
605	90,519
605,4	83,548
605,9	75,748
606,3	77,662
606,8	74,062
607,2	72,148
607,7	70,205
608,1	67,462
608,6	67,262
609	69,89
609,4	68,662
609,9	78,233
610,3	80,719
610,8	81,89
611,2	83,862
611,7	83,862
612,1	84,576
612,6	82,719
613	73,09
613,4	68,09
613,9	70,005
614,3	71,176
614,8	71,09
615,2	71,719
615,7	70,976
616,1	72,976
616,6	78,69
617	77,605
617,4	76,462
617,9	75,49
618,3	74,119
618,8	74,748
619,2	73,205
619,7	69,805
620,1	71,29
620,5	74,09
621	78,29
621,4	79,033
621,9	75,319
622,3	79,29
622,8	78,719
623,2	75,976
623,6	73,376
624,1	68,033
624,5	67,148
625	70,348
625,4	70,205
625,9	72,348
626,3	73,919
626,8	72,748
627,2	69,805
627,6	70,119
628,1	69,805
628,5	69,119
629	66,233
629,4	61,69
629,9	59,862
630,3	61,29
630,7	62,605
631,2	67,49
631,6	60,433
632,1	63,576
632,5	68,033
633	72,433
633,4	75,605
633,8	69,29
634,3	68,748
634,7	70,862
635,2	70,548
635,6	67,462
636,1	60,548
636,5	61,633
636,9	67,176
637,4	64,233
637,8	68,633
638,3	71,29
638,7	68,976
639,2	69,862
639,6	69,548
640	68,862
640,5	67,176
640,9	63,576
641,4	62,776
641,8	63,748
642,2	68,576
642,7	67,748
643,1	63,605
643,6	66,205
644	70,005
644,5	72,833
644,9	74,348
645,3	71,833
645,8	71,062
646,2	69,148
646,7	62,09
647,1	57,176
647,6	53,69
648	54,948
648,4	57,005
648,9	57,233
649,3	58,376
649,8	64,148
650,2	64,433
650,6	60,748
651,1	59,405
651,5	56,662
652	59,633
652,4	62,09
652,9	59,833
653,3	57,805
653,7	59,776
654,2	60,719
654,6	62,233
655,1	57,49
655,5	56,69
655,9	56,405
656,4	59,576
656,8	57,548
657,3	57,519
657,7	55,405
658,2	57,605
658,6	57,89
659	60,948
659,5	59,462
659,9	63,376
660,4	63,719
660,8	62,462
661,2	58,033
661,7	58,862
662,1	58,462
662,6	58,348
663	58,49
663,4	57,833
663,9	60,862
664,3	61,548
664,8	58,548
665,2	57,633
665,6	56,376
666,1	48,748
666,5	48,205
667	46,119
667,4	51,062
667,9	55,29
668,3	55,719
668,7	56,576
669,2	57,319
669,6	54,862
670,1	57,948
670,5	54,776
670,9	50,719
671,4	49,719
671,8	49,919
672,3	54,462
672,7	56,29
673,1	53,09
673,6	50,748
674	52,49
674,5	52,433
674,9	53,376
675,3	51,662
675,8	50,462
676,2	45,833
676,7	48,805
677,1	47,719
677,5	48,919
678	51,862
678,4	55,119
678,9	54,005
679,3	59,662
679,7	58,462
680,2	56,605
680,6	55,033
681,1	51,69
681,5	50,119
681,9	50,348
682,4	48,462
682,8	48,633
683,3	52,348
683,7	48,719
684,1	45,433
684,6	44,776
685	43,805
685,5	39,462
685,9	37,548
686,3	36,405
686,8	40,862
687,2	46,576
687,7	44,348
688,1	45,119
688,5	46,69
689	52,548
689,4	47,833
689,9	46,948
690,3	43,405
690,7	47,833
691,2	52,348
691,6	56,119
692	50,948
692,5	52,776
692,9	55,776
693,4	57,005
693,8	55,119
694,2	51,69
694,7	48,319
695,1	50,176
695,6	57,433
696	56,176
696,4	53,89
696,9	49,119
697,3	53,605
697,8	56,148
698,2	49,862
698,6	40,119
699,1	36,862
699,5	35,319
699,9	36,233
700,4	30,119
700,8	29,205
701,3	31,205
701,7	33,119
702,1	32,348
702,6	32,805
703	34,633
703,5	34,948
703,9	36,49
704,3	37,576
704,8	41,233
705,2	43,062
705,6	44,976
706,1	43,29
706,5	49,805
707	52,005
707,4	54,776
707,8	52,062
708,3	53,805
708,7	56,662
709,2	57,89
709,6	56,376
710	48,719
710,5	47,033
710,9	52,348
711,3	50,462
711,8	43,148
712,2	44,062
712,7	38,519
713,1	44,09
713,5	45,976
714	42,09
714,4	43,776
714,8	51,119
715,3	52,148
715,7	51,89
716,2	54,976
716,6	48,09
717	46,262
717,5	39,29
717,9	35,09
718,3	34,062
718,8	30,776
719,2	27,862
719,7	33,205
720,1	33,376
720,5	39,462
721	41,262
721,4	39,976
721,8	42,719
722,3	41,319
722,7	37,69
723,2	38,576
723,6	38,09
724	36,976
724,5	32,976
724,9	35,148
725,3	32,919
725,8	35,976
726,2	32,919
726,7	28,919
727,1	28,233
727,5	29,233
728	21,233
728,4	23,033
728,8	22,833
729,3	26,148
729,7	28,49
730,1	26,519
730,6	30,976
731	37,405
731,5	37,005
731,9	33,862
732,3	32,862
732,8	32,919
733,2	36,005
733,6	37,262
734,1	38,205
734,5	38,862
734,9	37,862
735,4	37,548
735,8	33,862
736,3	27,605
736,7	25,69
737,1	22,833
737,6	20,919
738	26,462
738,4	27,462
738,9	29,776
739,3	39,348
739,7	39,519
740,2	39,919
740,6	43,833
741,1	41,948
741,5	39,69
741,9	41,033
742,4	40,776
742,8	39,433
743,2	39,033
743,7	33,919
744,1	37,462
744,5	42,262
745	39,862
745,4	35,49
745,8	36,348
746,3	37,662
746,7	35,205
747,2	28,462
747,6	24,719
748	24,148
748,5	26,862
748,9	23,062
749,3	24,319
749,8	30,062
750,2	30,433
750,6	25,776
751,1	26,89
751,5	26,233
751,9	28,29
752,4	32,662
752,8	32,033
753,3	35,462
753,7	40,348
754,1	42,29
754,6	37,748
755	40,833
755,4	38,148
755,9	40,176
756,3	42,176
756,7	41,176
757,2	37,433
757,6	39,919
758	32,776
758,5	30,405
758,9	26,519
759,3	22,119
759,8	22,69
760,2	25,69
760,6	32,262
761,1	41,948
761,5	39,319
761,9	39,776
762,4	40,719
762,8	43,948
763,3	44,148
763,7	39,89
764,1	33,748
764,6	33,719
765	34,176
765,4	34,89
765,9	34,176
766,3	35,69
766,7	36,462
767,2	38,433
767,6	44,919
768	41,833
768,5	41,205
768,9	36,49
769,3	32,576
769,8	28,233
770,2	24,976
770,6	18,433
771,1	19,348
771,5	21,948
771,9	22,005
772,4	23,605
772,8	23,205
773,2	24,49
773,7	27,548
774,1	31,119
774,5	31,233
775	33,09
775,4	31,662
775,8	32,233
776,3	30,605
776,7	29,805
777,1	25,49
777,6	20,605
778	21,662
778,4	24,862
778,9	24,462
779,3	25,919
779,7	24,576
780,2	27,49
780,6	30,89
781	31,062
781,5	29,205
781,9	31,005
782,3	28,319
782,8	31,633
783,2	28,576
783,6	29,405
784,1	31,033
784,5	28,09
784,9	29,776
785,4	33,719
785,8	31,033
786,2	32,062
786,7	31,176
787,1	32,433
787,5	34,005
788	29,062
788,4	30,833
788,8	29,119
789,3	28,519
789,7	24,776
790,1	24,805
790,6	22,633
791	23,233
791,4	21,576
791,9	19,89
792,3	24,576
792,7	32,976
793,2	30,69
793,6	32,348
794	34,405
794,5	32,462
794,9	36,262
795,3	31,719
795,8	26,262
796,2	21,348
796,6	27,09
797,1	26,833
797,5	24,776
797,9	22,405
798,4	22,548
798,8	20,548
799,2	25,176
799,7	20,633
800,1	23,348
800,5	29,519
801	30,405
801,4	32,376
801,8	33,776
802,2	31,376
802,7	29,462
803,1	28,948
803,5	27,462
804	28,262
804,4	28,576
804,8	29,433
805,3	33,776
805,7	37,462
806,1	33,49
806,6	35,662
807	33,119
807,4	31,719
807,9	30,319
808,3	29,805
808,7	31,519
809,2	36,29
809,6	33,033
810	36,405
810,4	35,976
810,9	38,719
811,3	36,49
811,7	33,319
812,2	28,69
812,6	28,405
813	31,062
813,5	33,662
813,9	29,976
814,3	26,348
814,8	22,633
815,2	24,462
815,6	23,433
816,1	20,69
816,5	21,919
816,9	23,348
817,3	24,462
817,8	30,29
818,2	30,548
818,6	32,205
819,1	30,262
819,5	23,833
819,9	25,862
820,4	29,233
820,8	24,29
821,2	21,576
821,7	20,148
822,1	20,319
822,5	26,005
822,9	27,09
823,4	26,805
823,8	29,719
824,2	33,148
824,7	31,005
825,1	30,405
825,5	28,376
826	21,262
826,4	19,662
826,8	17,976
827,3	17,976
827,7	20,519
828,1	24,319
828,5	29,633
829	35,262
829,4	32,605
829,8	37,462
830,3	36,548
830,7	35,805
831,1	35,005
831,6	30,319
832	28,119
832,4	30,319
832,8	23,033
833,3	23,719
833,7	21,719
834,1	21,29
834,6	21,662
835	23,119
835,4	22,005
835,8	24,005
836,3	22,519
836,7	25,805
837,1	23,919
837,6	19,176
838	18,376
838,4	17,862
838,9	20,119
839,3	20,119
839,7	19,89
840,1	22,09
840,6	27,005
841	22,919
841,4	21,89
841,9	21,262
842,3	19,348
842,7	18,29
843,1	17,748
843,6	15,09
844	20,29
844,4	25,29
844,9	25,09
845,3	26,633
845,7	24,405
846,2	25,633
846,6	27,519
847	25,176
847,4	22,919
847,9	22,148
848,3	19,833
848,7	22,89
849,2	21,176
849,6	18,776
850	19,49
850,4	19,005
850,9	17,405
851,3	21,69
851,7	18,005
852,2	17,005
852,6	20,119
853	19,69
853,4	18,748
853,9	19,005
854,3	20,976
854,7	24,69
855,2	27,548
855,6	26,805
856	30,376
856,4	28,833
856,9	31,205
857,3	26,005
857,7	25,748
858,2	24,776
858,6	21,519
859	18,948
859,4	19,776
859,9	17,748
860,3	16,69
860,7	17,262
861,1	18,719
861,6	20,233
862	21,976
862,4	22,176
862,9	27,119
863,3	28,662
863,7	27,405
864,1	24,662
864,6	27,119
865	27,005
865,4	29,062
865,9	27,176
866,3	28,662
866,7	22,805
867,1	19,69
867,6	20,262
868	11,833
868,4	6,69
868,8	7,033
869,3	9,805
869,7	20,605
870,1	23,948
870,6	20,69
871	10,005
871,4	14,976
871,8	14,262
872,3	10,176
872,7	4,319
873,1	1,262
873,5	1,548
874	18,976
874,4	19,519
874,8	15,89
875,3	15,519
875,7	13,519
876,1	19,262
876,5	23,919
877	21,805
877,4	23,033
877,8	23,776
878,2	28,033
878,7	31,376
879,1	29,805
879,5	23,862
879,9	22,462
880,4	22,262
880,8	28,176
881,2	23,948
881,7	18,605
882,1	20,69
882,5	20,433
882,9	26,548
883,4	26,462
883,8	21,09
884,2	23,548
884,6	25,519
885,1	19,062
885,5	19,119
885,9	14,605
886,3	11,662
886,8	12,719
887,2	9,548
887,6	12,148
888	12,948
888,5	14,633
888,9	13,148
889,3	10,176
889,8	9,862
890,2	8,548
890,6	9,776
891	11,062
891,5	12,89
891,9	14,69
892,3	20,09
892,7	18,576
893,2	21,948
893,6	18,976
894	21,033
894,4	15,49
894,9	15,462
895,3	18,433
895,7	20,262
896,1	19,376
896,6	20,69
897	20,89
897,4	20,919
897,8	26,348
898,3	22,605
898,7	18,519
899,1	20,776
899,5	22,548
900	24,033
900,4	24,89
900,8	14,176
901,2	11,062
901,7	17,148
902,1	14,348
902,5	11,948
902,9	7,119
903,4	11,405
903,8	15,548
904,2	19,748
904,6	15,662
905,1	16,205
905,5	17,776
905,9	18,69
906,3	19,519
906,8	19,948
907,2	18,89
907,6	19,319
908	20,176
908,5	16,233
908,9	15,633
909,3	14,919
909,7	16,576
910,2	14,748
910,6	12,948
911	14,005
911,4	21,005
911,9	22,119
912,3	20,119
912,7	20,805
913,1	17,748
913,6	23,919
914	26,919
914,4	24,49
914,8	25,633
915,3	22,348
915,7	22,376
916,1	26,519
916,5	21,49
916,9	16,633
917,4	14,89
917,8	10,576
918,2	18,29
918,6	13,548
919,1	14,89
919,5	18,348
919,9	20,833
920,3	25,605
920,8	31,49
921,2	30,376
921,6	31,119
922	23,833
922,5	20,09
922,9	19,519
923,3	17,719
923,7	16,662
924,2	14,862
924,6	17,462
925	27,262
925,4	28,605
925,8	25,719
926,3	22,433
926,7	23,433
927,1	24,176
927,5	25,633
928	19,433
928,4	16,605
928,8	22,348
929,2	23,605
929,7	25,862
930,1	25,233
930,5	22,005
930,9	24,09
931,3	32,719
931,8	31,062
932,2	30,862
932,6	24,405
933	21,919
933,5	23,433
933,9	25,148
934,3	22,948
934,7	20,948
935,2	17,005
935,6	18,119
936	16,319
936,4	16,776
936,8	15,89
937,3	16,062
937,7	17,776
938,1	23,89
938,5	23,519
939	24,862
939,4	22,376
939,8	21,49
940,2	17,576
940,6	13,376
941,1	12,49
941,5	16,748
941,9	17,233
942,3	20,776
942,8	23,233
943,2	19,69
943,6	23,233
944	22,805
944,4	20,233
944,9	21,176
945,3	19,005
945,7	15,176
946,1	16,29
946,6	13,519
947	13,262
947,4	11,148
947,8	11,605
948,2	13,433
948,7	15,776
949,1	20,319
949,5	19,69
949,9	17,719
950,3	16,948
950,8	17,262
951,2	19,605
951,6	21,548
952	20,176
952,5	21,919
952,9	25,09
953,3	27,09
953,7	22,49
954,1	22,348
954,6	25,233
955	26,462
955,4	26,319
955,8	25,862
956,2	26,062
956,7	26,948
957,1	23,776
957,5	18,833
957,9	19,89
958,3	21,976
958,8	22,776
959,2	25,348
959,6	33,748
960	35,09
960,5	33,205
960,9	32,233
961,3	29,176
961,7	28,776
962,1	28,148
962,6	23,919
963	26,69
963,4	30,89
963,8	27,09
964,2	30,033
964,7	25,319
965,1	24,976
965,5	24,462
965,9	20,348
966,3	20,29
966,8	23,09
967,2	19,919
967,6	22,833
968	19,319
968,4	20,805
968,9	20,948
969,3	16,376
969,7	13,89
970,1	18,09
970,5	17,69
971	19,919
971,4	15,948
971,8	17,69
972,2	21,148
972,6	21,862
973,1	18,719
973,5	20,833
973,9	16,376
974,3	19,148
974,7	19,49
975,2	19,176
975,6	19,49
976	20,176
976,4	19,148
976,8	21,433
977,3	17,576
977,7	12,69
978,1	12,805
978,5	14,433
978,9	16,976
979,4	15,89
979,8	15,062
980,2	17,805
980,6	20,348
981	19,433
981,5	19,233
981,9	16,233
982,3	17,062
982,7	17,09
983,1	15,548
983,6	13,262
984	13,833
984,4	12,69
984,8	13,348
985,2	13,005
985,6	15,405
986,1	13,348
986,5	15,89
986,9	15,033
987,3	18,833
987,7	20,462
988,2	20,033
988,6	20,976
989	25,462
989,4	25,805
989,8	26,548
990,3	23,062
990,7	21,09
991,1	21,062
991,5	21,319
991,9	14,376
992,3	11,062
992,8	10,205
993,2	11,633
993,6	7,605
994	9,433
994,4	8,833
994,9	13,919
995,3	16,205
995,7	15,776
996,1	13,69
996,5	16,748
996,9	20,062
997,4	17,662
997,8	15,976
998,2	21,119
998,6	22,405
999	22,062
999,5	24,205
999,9	19,205
1000,3	22,719
1000,7	30,148
1001,1	27,29
1001,5	28,462
1002	28,205
1002,4	25,662
1002,8	23,49
1003,2	17,233
1003,6	13,719
1004	15,319
1004,5	12,862
1004,9	13,29
1005,3	10,262
1005,7	16,776
1006,1	17,062
1006,6	12,662
1007	7,348
1007,4	9,748
1007,8	11,348
1008,2	24,519
1008,6	23,69
1009,1	26,233
1009,5	31,948
1009,9	34,976
1010,3	34,062
1010,7	36,976
1011,1	26,548
1011,6	19,919
1012	21,948
1012,4	19,633
1012,8	16,519
1013,2	12,776
1013,6	8,748
1014,1	7,005
1014,5	11,833
1014,9	11,605
1015,3	9,69
1015,7	12,576
1016,1	15,405
1016,6	18,948
1017	21,748
1017,4	19,462
1017,8	18,348
1018,2	18,719
1018,6	19,319
1019,1	20,776
1019,5	18,148
1019,9	19,405
1020,3	21,662
1020,7	21,348
1021,1	20,833
1021,6	17,262
1022	12,805
1022,4	16,005
1022,8	13,49
1023,2	10,948
1023,6	9,662
1024,1	14,119
1024,5	17,833
1024,9	21,548
1025,3	20,833
1025,7	21,576
1026,1	17,062
1026,6	19,576
1027	17,319
1027,4	16,376
1027,8	14,548
1028,2	12,833
1028,6	14,462
1029	13,405
1029,5	11,148
1029,9	14,09
1030,3	12,062
1030,7	16,976
1031,1	20,89
1031,5	22,062
1032	28,69
1032,4	36,433
1032,8	28,976
1033,2	32,376
1033,6	25,69
1034	15,576
1034,4	14,262
1034,9	16,833
1035,3	15,948
1035,7	18,833
1036,1	22,89
1036,5	27,148
1036,9	33,605
1037,4	34,948
1037,8	30,233
1038,2	29,262
1038,6	31,89
1039	26,49
1039,4	26,976
1039,8	31,062
1040,3	32,433
1040,7	39,948
1041,1	31,976
1041,5	36,09
1041,9	36,805
1042,3	37,462
1042,7	29,605
1043,2	27,69
1043,6	26,433
1044	32,605
1044,4	30,748
1044,8	31,576
1045,2	29,376
1045,6	35,376
1046,1	34,462
1046,5	30,519
1046,9	29,862
1047,3	27,833
1047,7	25,805
1048,1	24,462
1048,5	23,89
1049	25,576
1049,4	23,576
1049,8	24,605
1050,2	23,89
1050,6	25,519
1051	28,919
1051,4	27,462
1051,9	28,69
1052,3	28,862
1052,7	26,605
1053,1	26,49
1053,5	26,462
1053,9	24,862
1054,3	21,605
1054,8	12,462
1055,2	14,633
1055,6	15,119
1056	15,348
1056,4	11,49
1056,8	11,633
1057,2	12,919
1057,6	23,376
1058,1	21,605
1058,5	20,976
1058,9	22,49
1059,3	25,348
1059,7	26,433
1060,1	28,262
1060,5	26,748
1061	28,062
1061,4	25,605
1061,8	24,748
1062,2	22,719
1062,6	17,748
1063	16,862
1063,4	14,376
1063,8	9,862
1064,3	15,862
1064,7	17,776
1065,1	21,205
1065,5	27,29
1065,9	31,776
1066,3	29,633
1066,7	40,405
1067,1	39,548
1067,6	37,605
1068	40,862
1068,4	38,405
1068,8	31,462
1069,2	36,376
1069,6	31,433
1070	30,176
1070,4	27,405
1070,9	21,89
1071,3	23,948
1071,7	25,69
1072,1	20,519
1072,5	20,919
1072,9	21,719
1073,3	23,176
1073,7	20,148
1074,2	18,719
1074,6	19,89
1075	22,176
1075,4	23,033
1075,8	18,09
1076,2	18,862
1076,6	22,662
1077	25,805
1077,5	24,948
1077,9	20,862
1078,3	16,49
1078,7	19,605
1079,1	21,576
1079,5	22,776
1079,9	22,348
1080,3	26,348
1080,7	30,633
1081,2	32,205
1081,6	30,49
1082	27,519
1082,4	27,976
1082,8	30,005
1083,2	24,462
1083,6	23,462
1084	26,29
1084,5	27,548
1084,9	25,576
1085,3	22,748
1085,7	17,976
1086,1	18,49
1086,5	18,29
1086,9	16,805
1087,3	20,176
1087,7	25,176
1088,2	28,548
1088,6	27,233
1089	27,719
1089,4	27,805
1089,8	20,519
1090,2	15,748
1090,6	13,09
1091	6,862
1091,4	6,576
1091,9	5,633
1092,3	7,09
1092,7	12,776
1093,1	14,205
1093,5	11,033
1093,9	12,633
1094,3	13,29
1094,7	14,233
1095,1	15,748
1095,5	12,262
1096	14,662
1096,4	17,719
1096,8	24,49
1097,2	26,49
1097,6	30,119
1098	25,205
1098,4	29,776
1098,8	28,376
1099,2	31,833
1099,6	28,49
1100,1	27,633
1100,5	23,176
1100,9	20,919
1101,3	20,033
1101,7	18,09
1102,1	15,519
1102,5	11,748
1102,9	6,605
1103,3	7,319
1103,7	11,148
1104,2	9,576
1104,6	9,576
1105	5,033
1105,4	7,319
1105,8	8,29
1106,2	6,405
1106,6	4,233
1107	2,89
1107,4	1,7
1107,8	3,433
1108,3	0,183
