Data from Subt2_00036.txt Node
Date: Mon Aug 28 13:16:31 MSK 2023
User: vat
Spectrometer: MAYP114033
Trigger mode: 0
Integration Time (sec): 1,000000E0
Scans to average: 5
Electric dark correction enabled: true
Nonlinearity correction enabled: false
Boxcar width: 3
XAxis mode: Wavelengths
Number of Pixels in Spectrum: 2068
>>>>>Begin Spectral Data<<<<<
199,4	-0,517
199,9	2,773
200,4	-1,167
200,8	1,133
201,3	3,305
201,8	4,419
202,2	4,905
202,7	5,933
203,2	5,619
203,6	11,448
204,1	13,133
204,6	15,133
205	15,79
205,5	20,762
206	21,305
206,4	22,419
206,9	23,333
207,4	23,676
207,8	18,019
208,3	20,39
208,8	19,048
209,2	23,762
209,7	20,276
210,2	12,39
210,6	10,362
211,1	13,876
211,5	14,505
212	14,019
212,5	9,962
212,9	16,933
213,4	24,162
213,9	26,848
214,3	27,505
214,8	25,819
215,3	24,619
215,7	25,619
216,2	22,676
216,7	19,762
217,1	18,39
217,6	21,019
218,1	16,333
218,5	13,333
219	13,819
219,5	13,248
219,9	16,219
220,4	16,59
220,9	13,248
221,3	17,305
221,8	22,105
222,3	25,476
222,7	25,619
223,2	26,619
223,6	25,562
224,1	27,905
224,6	27,648
225	29,305
225,5	26,305
226	25,762
226,4	23,505
226,9	22,076
227,4	22,105
227,8	18,933
228,3	14,876
228,8	14,933
229,2	20,848
229,7	21,448
230,2	20,533
230,6	16,533
231,1	19,848
231,5	22,048
232	20,276
232,5	14,762
232,9	15,619
233,4	19,533
233,9	24,448
234,3	23,762
234,8	22,333
235,3	18,962
235,7	17,162
236,2	14,648
236,7	12,819
237,1	16,219
237,6	19,905
238,1	17,99
238,5	24,048
239	22,048
239,4	24,933
239,9	26,248
240,4	20,162
240,8	17,819
241,3	25,905
241,8	22,162
242,2	27,162
242,7	29,819
243,2	27,648
243,6	33,819
244,1	30,762
244,6	24,619
245	24,105
245,5	24,448
245,9	17,105
246,4	15,676
246,9	13,848
247,3	14,448
247,8	15,39
248,3	22,048
248,7	19,048
249,2	21,848
249,7	25,219
250,1	20,076
250,6	23,105
251	21,105
251,5	19,248
252	18,619
252,4	19,619
252,9	18,419
253,4	21,333
253,8	19,448
254,3	20,076
254,8	17,105
255,2	19,762
255,7	21,162
256,1	23,533
256,6	27,333
257,1	27,276
257,5	26,99
258	22,762
258,5	21,648
258,9	19,162
259,4	16,933
259,9	11,99
260,3	12,59
260,8	13,619
261,2	16,562
261,7	18,876
262,2	22,19
262,6	23,333
263,1	21,848
263,6	22,105
264	21,819
264,5	21,419
264,9	23,019
265,4	18,99
265,9	18,962
266,3	23,019
266,8	21,219
267,3	21,762
267,7	23,076
268,2	19,962
268,7	24,876
269,1	24,276
269,6	21,362
270	24,333
270,5	22,648
271	25,19
271,4	27,819
271,9	28,819
272,4	30,619
272,8	29,733
273,3	28,305
273,7	25,105
274,2	26,505
274,7	19,705
275,1	17,733
275,6	14,733
276,1	11,705
276,5	11,676
277	17,705
277,4	14,219
277,9	20,019
278,4	16,448
278,8	20,048
279,3	22,819
279,8	20,819
280,2	15,733
280,7	17,248
281,1	16,819
281,6	19,505
282,1	12,562
282,5	15,99
283	16,362
283,4	20,133
283,9	18,933
284,4	17,59
284,8	14,533
285,3	21,962
285,8	22,505
286,2	19,619
286,7	18,876
287,1	19,876
287,6	19,305
288,1	28,105
288,5	26,648
289	24,59
289,5	29,333
289,9	31,819
290,4	34,305
290,8	33,962
291,3	29,105
291,8	30,705
292,2	29,533
292,7	32,362
293,1	29,648
293,6	25,648
294,1	28,248
294,5	25,562
295	24,79
295,5	22,905
295,9	19,962
296,4	21,876
296,8	22,505
297,3	21,305
297,8	15,276
298,2	10,619
298,7	15,276
299,1	17,676
299,6	15,733
300,1	16,448
300,5	16,048
301	23,562
301,5	22,39
301,9	21,762
302,4	18,019
302,8	16,476
303,3	15,962
303,8	16,019
304,2	12,248
304,7	18,19
305,1	18,305
305,6	20,848
306,1	21,562
306,5	23,248
307	23,933
307,4	24,762
307,9	18,733
308,4	15,676
308,8	18,962
309,3	19,019
309,8	17,448
310,2	19,076
310,7	22,19
311,1	25,19
311,6	27,333
312,1	20,219
312,5	20,476
313	17,762
313,4	17,048
313,9	16,248
314,4	19,19
314,8	17,476
315,3	23,276
315,7	27,105
316,2	31,819
316,7	28,305
317,1	23,99
317,6	21,648
318	25,619
318,5	25,676
319	24,619
319,4	24,448
319,9	25,076
320,3	29,905
320,8	34,448
321,3	30,476
321,7	30,162
322,2	27,448
322,6	23,19
323,1	23,505
323,6	22,39
324	19,819
324,5	22,648
324,9	21,362
325,4	21,533
325,9	23,79
326,3	23,39
326,8	23,79
327,2	22,648
327,7	23,905
328,2	21,733
328,6	19,819
329,1	16,848
329,5	18,019
330	14,962
330,5	11,276
330,9	6,505
331,4	7,648
331,8	14,248
332,3	20,076
332,8	19,219
333,2	21,762
333,7	25,676
334,1	30,905
334,6	28,362
335,1	27,276
335,5	22,848
336	24,419
336,4	29,162
336,9	24,619
337,4	23,419
337,8	25,905
338,3	24,19
338,7	25,733
339,2	27,619
339,7	25,133
340,1	26,048
340,6	20,248
341	19,362
341,5	18,848
342	22,333
342,4	21,933
342,9	21,048
343,3	21,505
343,8	24,362
344,2	27,676
344,7	31,219
345,2	31,133
345,6	29,219
346,1	27,619
346,5	29,676
347	30,619
347,5	30,105
347,9	27,762
348,4	25,99
348,8	27,276
349,3	34,533
349,8	35,333
350,2	38,105
350,7	38,505
351,1	40,276
351,6	48,39
352	54,048
352,5	56,99
353	63,533
353,4	70,733
353,9	80,333
354,3	98,048
354,8	108,19
355,3	127,419
355,7	146,505
356,2	172,819
356,6	205,476
357,1	245,419
357,5	285,39
358	332,448
358,5	389,59
358,9	455,19
359,4	528,476
359,8	613,819
360,3	703,105
360,8	805,19
361,2	923,819
361,7	1045,019
362,1	1178,248
362,6	1331,819
363	1487,19
363,5	1663,79
364	1849,619
364,4	2043,362
364,9	2236,076
365,3	2427,419
365,8	2610,333
366,3	2784,105
366,7	2944,076
367,2	3075,248
367,6	3182,019
368,1	3276,848
368,5	3344,733
369	3374,533
369,5	3386,19
369,9	3354,619
370,4	3307,848
370,8	3240,305
371,3	3148,248
371,7	3039,162
372,2	2922,076
372,7	2783,676
373,1	2645,905
373,6	2499,362
374	2343,848
374,5	2187,848
374,9	2036,819
375,4	1887,59
375,9	1743,59
376,3	1611,248
376,8	1488,39
377,2	1372,39
377,7	1261,962
378,2	1156,133
378,6	1059,219
379,1	970,905
379,5	887,39
380	808,705
380,4	740,505
380,9	678,79
381,4	628,876
381,8	582,848
382,3	541,733
382,7	500,248
383,2	463,79
383,6	433,362
384,1	403,676
384,6	378,733
385	355,162
385,5	331,19
385,9	312,676
386,4	292,019
386,8	271,048
387,3	252,476
387,7	230,39
388,2	208,876
388,7	194,133
389,1	174,505
389,6	164,99
390	157,819
390,5	145,276
390,9	136,133
391,4	128,619
391,9	123,248
392,3	126,476
392,8	121,848
393,2	109,933
393,7	104,248
394,1	98,79
394,6	95,79
395,1	91,219
395,5	79,562
396	71,362
396,4	69,562
396,9	66,79
397,3	65,019
397,8	58,505
398,2	55,933
398,7	55,419
399,2	55,362
399,6	54,705
400,1	58,79
400,5	57,305
401	59,133
401,4	54,505
401,9	53,79
402,4	55,419
402,8	50,933
403,3	48,362
403,7	49,019
404,2	50,19
404,6	50,076
405,1	52,419
405,5	47,105
406	45,19
406,5	45,019
406,9	43,133
407,4	42,39
407,8	45,79
408,3	42,362
408,7	43,448
409,2	46,876
409,6	47,219
410,1	46,076
410,6	47,019
411	47,39
411,5	49,419
411,9	56,648
412,4	59,819
412,8	58,133
413,3	63,076
413,7	66,733
414,2	64,819
414,7	69,962
415,1	68,333
415,6	67,533
416	73,419
416,5	77,59
416,9	76,876
417,4	84,562
417,8	82,762
418,3	82,362
418,8	86,962
419,2	89,733
419,7	90,505
420,1	92,99
420,6	90,39
421	96,476
421,5	100,533
421,9	100,762
422,4	99,419
422,8	98,619
423,3	96,305
423,8	96,362
424,2	90,333
424,7	85,99
425,1	82,448
425,6	79,819
426	75,448
426,5	74,133
426,9	72,105
427,4	69,619
427,9	67,762
428,3	68,19
428,8	64,933
429,2	63,076
429,7	62,476
430,1	60,133
430,6	60,819
431	62,305
431,5	59,905
431,9	57,676
432,4	58,248
432,8	57,619
433,3	62,705
433,8	65,019
434,2	59,705
434,7	61,59
435,1	69,905
435,6	67,362
436	69,705
436,5	65,933
436,9	66,362
437,4	69,39
437,8	68,619
438,3	61,905
438,8	66,762
439,2	68,848
439,7	73,133
440,1	67,705
440,6	71,476
441	70,219
441,5	71,39
441,9	70,733
442,4	69,219
442,8	71,076
443,3	77,133
443,7	76,562
444,2	79,533
444,7	89,133
445,1	93,848
445,6	102,648
446	106,648
446,5	109,848
446,9	112,076
447,4	118,848
447,8	116,562
448,3	117,733
448,7	115,848
449,2	110,619
449,6	115,219
450,1	120,276
450,6	121,076
451	127,419
451,5	133,876
451,9	136,99
452,4	144,99
452,8	148,562
453,3	150,219
453,7	152,505
454,2	156,876
454,6	162,276
455,1	169,619
455,5	174,762
456	181,276
456,4	191,848
456,9	202,619
457,3	207,819
457,8	207,248
458,3	214,076
458,7	217,962
459,2	221,333
459,6	224,905
460,1	232,448
460,5	238,19
461	243,333
461,4	246,533
461,9	255,276
462,3	260,933
462,8	265,79
463,2	268,99
463,7	268,762
464,1	276,905
464,6	281,476
465	288,248
465,5	297,019
466	307,848
466,4	308,962
466,9	322,362
467,3	332,019
467,8	341,59
468,2	343,276
468,7	348,819
469,1	353,533
469,6	367,505
470	376,733
470,5	376,505
470,9	379,105
471,4	392,19
471,8	393,676
472,3	399,219
472,7	404,733
473,2	413,419
473,6	430,019
474,1	440,219
474,5	443,562
475	455,333
475,4	458,962
475,9	466,562
476,4	462,819
476,8	463,333
477,3	469,362
477,7	476,876
478,2	483,333
478,6	492,333
479,1	491,019
479,5	498,819
480	506,305
480,4	512,419
480,9	517,219
481,3	522,333
481,8	525,248
482,2	535,19
482,7	542,019
483,1	544,876
483,6	546,419
484	549,648
484,5	550,505
484,9	553,476
485,4	555,419
485,8	552,905
486,3	553,933
486,7	553,876
487,2	551,676
487,6	550,648
488,1	556,705
488,5	557,476
489	566,162
489,4	563,133
489,9	564,933
490,4	570,333
490,8	574,733
491,3	574,705
491,7	572,076
492,2	565,505
492,6	566,076
493,1	564,819
493,5	562,019
494	558,562
494,4	557,648
494,9	559,419
495,3	556,905
495,8	560,362
496,2	558,162
496,7	556,533
497,1	559,333
497,6	554,219
498	549,39
498,5	551,905
498,9	551,105
499,4	551,933
499,8	555,419
500,3	552,19
500,7	545,762
501,2	546,333
501,6	539,933
502,1	532,648
502,5	524,533
503	515,533
503,4	513,705
503,9	513,505
504,3	507,648
504,8	506,19
505,2	506,448
505,7	506,905
506,1	501,505
506,6	491,733
507	482,133
507,5	482,762
507,9	479,448
508,4	469,419
508,8	462,99
509,3	462,933
509,7	465,333
510,2	461,733
510,6	456,019
511,1	452,133
511,5	451,105
512	448,79
512,4	442,076
512,9	430,762
513,3	428,819
513,8	421,819
514,2	415,905
514,7	408,333
515,1	405,676
515,6	400,39
516	399,248
516,5	395,333
516,9	390,276
517,4	385,048
517,8	384,962
518,3	376,105
518,7	372,476
519,2	367,648
519,6	358,99
520,1	355,819
520,5	354,333
521	348,305
521,4	344,076
521,9	338,39
522,3	333,219
522,8	335,933
523,2	327,99
523,7	320,276
524,1	315,676
524,6	315,99
525	311,105
525,5	303,733
525,9	297,276
526,4	295,562
526,8	292,248
527,3	286,276
527,7	280,133
528,2	275,876
528,6	276,505
529,1	270,505
529,5	267,762
530	264,219
530,4	263,133
530,9	258,676
531,3	261,39
531,8	257,048
532,2	256,59
532,6	252,219
533,1	246,962
533,5	246,162
534	237,733
534,4	229,705
534,9	228,59
535,3	224,133
535,8	223,133
536,2	226,99
536,7	223,562
537,1	223,762
537,6	221,705
538	217,99
538,5	216,905
538,9	210,762
539,4	206,99
539,8	202,419
540,3	202,59
540,7	203,019
541,2	200,133
541,6	201,276
542,1	199,99
542,5	195,619
543	192,933
543,4	190,076
543,9	188,019
544,3	183,248
544,8	178,762
545,2	180,533
545,7	181,705
546,1	180,219
546,5	180,79
547	178,448
547,4	176,648
547,9	180,848
548,3	178,79
548,8	175,448
549,2	174,362
549,7	171,305
550,1	167,276
550,6	171,876
551	166,476
551,5	163,162
551,9	161,762
552,4	159,476
552,8	164,076
553,3	167,105
553,7	166,305
554,2	163,705
554,6	162,933
555,1	160,19
555,5	161,219
555,9	157,048
556,4	154,59
556,8	147,59
557,3	147,59
557,7	147,048
558,2	148,048
558,6	147,133
559,1	143,962
559,5	142,19
560	144,676
560,4	140,248
560,9	143,305
561,3	141,562
561,8	137,59
562,2	135,133
562,7	131,448
563,1	130,105
563,6	131,048
564	127,819
564,4	126,876
564,9	125,59
565,3	120,905
565,8	121,676
566,2	116,019
566,7	118,533
567,1	118,162
567,6	119,305
568	122,79
568,5	125,733
568,9	125,362
569,4	129,19
569,8	120,762
570,3	117,562
570,7	115,59
571,1	113,419
571,6	114,99
572	116,876
572,5	112,562
572,9	117,419
573,4	119,276
573,8	120,19
574,3	115,962
574,7	115,419
575,2	113,448
575,6	118,019
576,1	119,476
576,5	115,876
576,9	111,076
577,4	119,705
577,8	115,333
578,3	111,533
578,7	108,333
579,2	103,39
579,6	102,705
580,1	106,276
580,5	100,562
581	104,733
581,4	107,39
581,9	108,305
582,3	108,905
582,7	109,819
583,2	107,819
583,6	110,19
584,1	111,448
584,5	109,99
585	107,248
585,4	106,362
585,9	105,19
586,3	105,276
586,8	100,276
587,2	97,848
587,6	96,19
588,1	99,419
588,5	96,19
589	96,19
589,4	93,019
589,9	94,933
590,3	95,819
590,8	98,019
591,2	93,79
591,7	93,333
592,1	91,133
592,5	94,619
593	94,79
593,4	89,048
593,9	86,99
594,3	90,219
594,8	92,733
595,2	90,848
595,7	83,59
596,1	81,476
596,6	80,476
597	82,019
597,4	79,876
597,9	79,133
598,3	84,848
598,8	92,019
599,2	91,362
599,7	96,419
600,1	92,219
600,6	90,762
601	90,619
601,4	87,876
601,9	84,305
602,3	88,276
602,8	89,59
603,2	95,305
603,7	95,248
604,1	94,219
604,6	97,676
605	98,448
605,4	91,905
605,9	89,79
606,3	81,19
606,8	77,762
607,2	79,819
607,7	78,705
608,1	77,676
608,6	82,39
609	82,59
609,4	87,99
609,9	93,533
610,3	92,162
610,8	91,076
611,2	91,848
611,7	87,733
612,1	83,105
612,6	73,819
613	70,019
613,4	68,476
613,9	65,876
614,3	66,733
614,8	63,59
615,2	67,248
615,7	74,819
616,1	79,133
616,6	84,248
617	84,333
617,4	83,048
617,9	87,305
618,3	82,933
618,8	81,276
619,2	76,676
619,7	72,476
620,1	75,362
620,5	71,076
621	71,819
621,4	73,562
621,9	71,562
622,3	73,305
622,8	70,162
623,2	67,99
623,6	68,962
624,1	69,419
624,5	70,819
625	71,905
625,4	73,676
625,9	76,648
626,3	74,79
626,8	78,733
627,2	78,076
627,6	79,19
628,1	79,419
628,5	77,79
629	79,848
629,4	77,276
629,9	71,333
630,3	66,99
630,7	63,905
631,2	64,19
631,6	58,248
632,1	57,476
632,5	62,39
633	66,876
633,4	70,276
633,8	67,762
634,3	66,79
634,7	71,448
635,2	76,705
635,6	73,962
636,1	65,19
636,5	63,476
636,9	66,962
637,4	68,476
637,8	64,333
638,3	61,562
638,7	60,19
639,2	64,705
639,6	67,133
640	66,133
640,5	66,333
640,9	71,048
641,4	70,59
641,8	74,105
642,2	76,105
642,7	75,819
643,1	75,048
643,6	71,905
644	75,933
644,5	74,848
644,9	72,705
645,3	72,876
645,8	69,705
646,2	67,39
646,7	66,162
647,1	57,419
647,6	56,79
648	55,362
648,4	55,905
648,9	59,733
649,3	58,562
649,8	61,99
650,2	60,533
650,6	59,705
651,1	58,019
651,5	54,933
652	54,905
652,4	60,276
652,9	59,448
653,3	57,448
653,7	53,648
654,2	52,905
654,6	55,305
655,1	51,619
655,5	49,733
655,9	49,962
656,4	55,933
656,8	60,219
657,3	66,562
657,7	62,733
658,2	63,048
658,6	61,333
659	63,762
659,5	64,876
659,9	63,733
660,4	59,762
660,8	60,819
661,2	56,762
661,7	60,962
662,1	58,819
662,6	59,99
663	57,076
663,4	57,162
663,9	58,933
664,3	56,819
664,8	54,076
665,2	55,876
665,6	46,705
666,1	47,333
666,5	47,648
667	44,448
667,4	52,133
667,9	49,59
668,3	45,99
668,7	53,59
669,2	51,648
669,6	46,19
670,1	47,533
670,5	44,562
670,9	45,59
671,4	45,019
671,8	43,276
672,3	45,99
672,7	47,876
673,1	50,933
673,6	50,733
674	50,733
674,5	55,19
674,9	55,533
675,3	53,219
675,8	55,162
676,2	50,99
676,7	51,848
677,1	53,333
677,5	51,733
678	51,248
678,4	55,048
678,9	53,048
679,3	55,876
679,7	53,619
680,2	53,019
680,6	51,133
681,1	48,276
681,5	48,905
681,9	50,905
682,4	47,59
682,8	49,648
683,3	55,133
683,7	53,648
684,1	55,362
684,6	53,076
685	50,362
685,5	46,448
685,9	44,676
686,3	40,448
686,8	40,962
687,2	43,505
687,7	43,333
688,1	46,59
688,5	49,248
689	51,79
689,4	46,705
689,9	46,619
690,3	45,733
690,7	44,848
691,2	41,448
691,6	42,819
692	42,276
692,5	40,933
692,9	41,819
693,4	41,19
693,8	42,248
694,2	42,562
694,7	41,19
695,1	44,305
695,6	50,162
696	48,448
696,4	47,362
696,9	43,048
697,3	48,048
697,8	50,162
698,2	42,79
698,6	39,933
699,1	44,476
699,5	42,962
699,9	42,105
700,4	37,933
700,8	38,933
701,3	40,133
701,7	36,819
702,1	38,162
702,6	37,705
703	37,905
703,5	39,362
703,9	40,933
704,3	41,219
704,8	45,076
705,2	39,333
705,6	41,076
706,1	43,876
706,5	46,99
707	43,048
707,4	46,448
707,8	47,933
708,3	52,705
708,7	50,676
709,2	50,733
709,6	48,448
710	48,419
710,5	46,59
710,9	47,619
711,3	45,048
711,8	42,848
712,2	41,133
712,7	41,19
713,1	41,419
713,5	40,905
714	35,848
714,4	32,276
714,8	39,362
715,3	42,419
715,7	41,876
716,2	44,762
716,6	44,305
717	48,648
717,5	49,762
717,9	46,562
718,3	44,59
718,8	41,19
719,2	41,419
719,7	41,276
720,1	38,276
720,5	41,248
721	41,448
721,4	39,619
721,8	41,248
722,3	41,019
722,7	39,276
723,2	40,876
723,6	44,248
724	42,219
724,5	43,933
724,9	43,505
725,3	35,705
725,8	38,048
726,2	34,076
726,7	25,676
727,1	25,905
727,5	25,333
728	17,876
728,4	21,762
728,8	20,962
729,3	22,105
729,7	22,848
730,1	21,762
730,6	23,962
731	29,076
731,5	31,105
731,9	28,648
732,3	33,362
732,8	34,905
733,2	39,619
733,6	40,562
734,1	41,733
734,5	42,762
734,9	42,59
735,4	39,076
735,8	36,533
736,3	28,733
736,7	26,533
737,1	27,419
737,6	25,99
738	34,019
738,4	35,733
738,9	38,676
739,3	46,59
739,7	47,562
740,2	49,59
740,6	50,933
741,1	42,333
741,5	37,419
741,9	37,676
742,4	38,933
742,8	36,076
743,2	35,448
743,7	30,762
744,1	36,705
744,5	38,648
745	36,962
745,4	32,79
745,8	32,276
746,3	30,305
746,7	31,019
747,2	25,762
747,6	26,305
748	29,305
748,5	30,248
748,9	28,476
749,3	32,162
749,8	34,362
750,2	34,505
750,6	36,933
751,1	34,19
751,5	34,933
751,9	40,848
752,4	41,476
752,8	45,105
753,3	46,59
753,7	44,933
754,1	45,848
754,6	40,848
755	40,305
755,4	40,076
755,9	37,333
756,3	38,019
756,7	36,705
757,2	32,99
757,6	35,105
758	32,048
758,5	27,876
758,9	25,533
759,3	22,933
759,8	18,876
760,2	23,476
760,6	25,762
761,1	26,419
761,5	26,648
761,9	27,048
762,4	31,019
762,8	36,505
763,3	38,419
763,7	39,905
764,1	40,362
764,6	39,962
765	41,362
765,4	41,705
765,9	43,705
766,3	40,219
766,7	36,962
767,2	36,048
767,6	37,19
768	34,562
768,5	32,99
768,9	28,676
769,3	31,533
769,8	30,362
770,2	30,905
770,6	29,819
771,1	30,39
771,5	27,562
771,9	29,933
772,4	27,276
772,8	26,962
773,2	28,762
773,7	29,333
774,1	34,733
774,5	35,105
775	32,705
775,4	31,676
775,8	34,19
776,3	28,219
776,7	27,248
777,1	23,333
777,6	20,419
778	20,019
778,4	18,505
778,9	17,79
779,3	20,876
779,7	23,79
780,2	25,476
780,6	32,076
781	35,676
781,5	36,076
781,9	37,562
782,3	37,19
782,8	34,619
783,2	30,19
783,6	25,505
784,1	21,333
784,5	21,619
784,9	17,848
785,4	19,362
785,8	22,905
786,2	23,248
786,7	26,905
787,1	36,19
787,5	34,333
788	34,933
788,4	36,79
788,8	35,219
789,3	40,19
789,7	36,533
790,1	29,848
790,6	34,619
791	37,076
791,4	37,648
791,9	32,962
792,3	31,276
792,7	36,048
793,2	37,419
793,6	34,762
794	36,019
794,5	33,876
794,9	42,448
795,3	42,305
795,8	40,019
796,2	34,419
796,6	33,076
797,1	30,333
797,5	28,476
797,9	24,19
798,4	25,562
798,8	22,333
799,2	27,619
799,7	25,562
800,1	25,99
800,5	27,562
801	27,533
801,4	23,076
801,8	24,133
802,2	18,876
802,7	22,448
803,1	24,19
803,5	24,162
804	23,419
804,4	23,648
804,8	27,133
805,3	27,533
805,7	27,762
806,1	24,99
806,6	27,133
807	25,105
807,4	21,533
807,9	15,39
808,3	17,762
808,7	19,619
809,2	21,476
809,6	21,076
810	26,419
810,4	31,133
810,9	35,619
811,3	38,219
811,7	34,276
812,2	29,019
812,6	28,248
813	27,819
813,5	29,133
813,9	30,248
814,3	26,219
814,8	28,448
815,2	32,076
815,6	30,305
816,1	29,105
816,5	28,419
816,9	27,419
817,3	26,99
817,8	31,476
818,2	31,19
818,6	32,59
819,1	27,162
819,5	24,962
819,9	28,305
820,4	34,133
820,8	28,105
821,2	26,648
821,7	22,305
822,1	26,99
822,5	29,476
822,9	25,962
823,4	24,19
823,8	24,276
824,2	25,933
824,7	28,619
825,1	24,448
825,5	22,448
826	19,848
826,4	18,448
826,8	15,19
827,3	14,848
827,7	15,219
828,1	16,733
828,5	19,362
829	22,762
829,4	18,762
829,8	24,476
830,3	28,219
830,7	29,648
831,1	32,705
831,6	29,905
832	29,476
832,4	33,219
832,8	29,705
833,3	25,962
833,7	19,905
834,1	19,562
834,6	19,676
835	19,933
835,4	19,419
835,8	20,133
836,3	19,676
836,7	22,648
837,1	20,676
837,6	18,505
838	17,619
838,4	17,276
838,9	18,79
839,3	21,505
839,7	23,933
840,1	26,276
840,6	25,362
841	23,79
841,4	23,705
841,9	25,562
842,3	23,562
842,7	21,933
843,1	18,533
843,6	22,705
844	21,476
844,4	23,79
844,9	23,876
845,3	24,676
845,7	26,476
846,2	28,248
846,6	27,505
847	33,219
847,4	34,933
847,9	32,79
848,3	28,59
848,7	26,876
849,2	23,819
849,6	20,876
850	19,019
850,4	14,362
850,9	11,962
851,3	17,362
851,7	13,248
852,2	14,305
852,6	16,648
853	19,133
853,4	20,276
853,9	22,819
854,3	21,99
854,7	28,876
855,2	34,219
855,6	36,419
856	34,133
856,4	30,19
856,9	33,162
857,3	28,762
857,7	31,133
858,2	26,933
858,6	23,248
859	22,076
859,4	25,105
859,9	20,962
860,3	23,905
860,7	17,39
861,1	18,476
861,6	21,019
862	20,876
862,4	17,162
862,9	18,819
863,3	18,39
863,7	18,505
864,1	17,648
864,6	17,276
865	15,733
865,4	21,219
865,9	22,562
866,3	23,333
866,7	24,79
867,1	23,076
867,6	25,933
868	25,305
868,4	21,705
868,8	15,19
869,3	16,876
869,7	16,905
870,1	17,79
870,6	8,99
871	47,19
871,4	49,419
871,8	51,219
872,3	47,79
872,7	43,39
873,1	44,962
873,5	48,905
874	13,705
874,4	12,648
874,8	13,419
875,3	15,162
875,7	12,848
876,1	16,59
876,5	22,305
877	21,59
877,4	24,162
877,8	22,248
878,2	26,219
878,7	32,248
879,1	26,19
879,5	22,333
879,9	20,162
880,4	14,19
880,8	20,448
881,2	14,762
881,7	13,276
882,1	16,419
882,5	14,619
882,9	15,39
883,4	20,533
883,8	17,133
884,2	13,362
884,6	13,99
885,1	9,648
885,5	12,733
885,9	10,848
886,3	8,276
886,8	13,505
887,2	15,105
887,6	18,876
888	21,705
888,5	20,048
888,9	21,876
889,3	20,19
889,8	16,133
890,2	16,505
890,6	14,876
891	14,762
891,5	17,819
891,9	17,39
892,3	23,79
892,7	22,733
893,2	28,99
893,6	24,533
894	23,276
894,4	19,133
894,9	18,99
895,3	16,305
895,7	13,79
896,1	9,562
896,6	13,448
897	16,962
897,4	18,705
897,8	21,79
898,3	24,019
898,7	23,848
899,1	24,305
899,5	24,648
900	21,705
900,4	20,676
900,8	12,876
901,2	5,333
901,7	10,676
902,1	11,133
902,5	13,648
902,9	13,819
903,4	14,876
903,8	23,39
904,2	31,419
904,6	27,733
905,1	29,076
905,5	24,79
905,9	24,876
906,3	22,19
906,8	16,419
907,2	13,905
907,6	16,933
908	14,048
908,5	9,162
908,9	10,905
909,3	13,619
909,7	16,819
910,2	16,276
910,6	14,962
911	17,362
911,4	26,99
911,9	25,076
912,3	28,819
912,7	32,248
913,1	28,733
913,6	30,248
914	31,305
914,4	30,419
914,8	34,99
915,3	32,248
915,7	28,762
916,1	34,562
916,5	30,048
916,9	26,39
917,4	23,79
917,8	19,619
918,2	21,79
918,6	18,876
919,1	15,705
919,5	16,876
919,9	20,048
920,3	19,933
920,8	21,476
921,2	16,848
921,6	15,076
922	16,076
922,5	17,419
922,9	16,905
923,3	16,219
923,7	13,962
924,2	15,533
924,6	19,362
925	17,076
925,4	17,533
925,8	17,733
926,3	18,733
926,7	18,762
927,1	18,362
927,5	24,533
928	26,562
928,4	20,905
928,8	21,219
929,2	22,505
929,7	24,876
930,1	25,019
930,5	19,076
930,9	21,762
931,3	29,619
931,8	29,019
932,2	24,648
932,6	22,448
933	19,99
933,5	22,505
933,9	23,876
934,3	17,533
934,7	19,819
935,2	20,562
935,6	18,733
936	15,905
936,4	14,962
936,8	12,99
937,3	18,105
937,7	16,362
938,1	18,933
938,5	18,476
939	21,99
939,4	20,562
939,8	19,819
940,2	16,933
940,6	13,876
941,1	12,562
941,5	18,305
941,9	22,762
942,3	25,733
942,8	24,305
943,2	20,962
943,6	21,505
944	19,305
944,4	17,39
944,9	12,39
945,3	8,848
945,7	9,876
946,1	13,019
946,6	14,962
947	18,648
947,4	15,848
947,8	21,533
948,2	23,448
948,7	19,39
949,1	23,99
949,5	22,276
949,9	22,99
950,3	21,648
950,8	17,419
951,2	17,19
951,6	23,562
952	20,162
952,5	19,619
952,9	15,79
953,3	17,448
953,7	13,362
954,1	14,505
954,6	9,362
955	9,619
955,4	10,105
955,8	15,39
956,2	14,848
956,7	20,476
957,1	21,076
957,5	26,219
957,9	27,962
958,3	29,419
958,8	29,333
959,2	33,276
959,6	36,876
960	34,448
960,5	27,962
960,9	29,876
961,3	26,505
961,7	26,133
962,1	26,305
962,6	23,419
963	25,419
963,4	33,476
963,8	28,362
964,2	30,362
964,7	27,762
965,1	26,648
965,5	27,248
965,9	26,019
966,3	21,99
966,8	20,762
967,2	22,19
967,6	22,619
968	18,105
968,4	21,933
968,9	21,876
969,3	22,019
969,7	19,762
970,1	18,819
970,5	17,762
971	21,59
971,4	12,733
971,8	13,505
972,2	12,276
972,6	14,819
973,1	16,79
973,5	17,59
973,9	14,133
974,3	19,048
974,7	19,105
975,2	17,619
975,6	19,305
976	18,162
976,4	18,276
976,8	24,219
977,3	19,762
977,7	17,79
978,1	21,19
978,5	24,333
978,9	26,076
979,4	24,219
979,8	19,562
980,2	23,133
980,6	27,819
981	25,076
981,5	22,933
981,9	20,876
982,3	23,305
982,7	24,962
983,1	25,648
983,6	21,876
984	23,676
984,4	21,562
984,8	21,848
985,2	24,876
985,6	24,819
986,1	19,048
986,5	20,219
986,9	21,59
987,3	21,076
987,7	20,705
988,2	14,162
988,6	13,076
989	16,276
989,4	10,048
989,8	10,505
990,3	14,105
990,7	14,19
991,1	16,105
991,5	16,619
991,9	13,505
992,3	15,39
992,8	12,048
993,2	10,048
993,6	9,876
994	12,419
994,4	15,048
994,9	18,562
995,3	22,705
995,7	24,476
996,1	25,733
996,5	26,133
996,9	28,59
997,4	24,819
997,8	22,962
998,2	22,219
998,6	20,133
999	16,762
999,5	18,419
999,9	16,19
1000,3	15,905
1000,7	18,79
1001,1	19,676
1001,5	21,648
1002	22,048
1002,4	17,533
1002,8	19,133
1003,2	17,333
1003,6	17,648
1004	18,448
1004,5	18,562
1004,9	21,705
1005,3	22,019
1005,7	24,619
1006,1	26,133
1006,6	25,905
1007	22,219
1007,4	17,533
1007,8	18,819
1008,2	25,448
1008,6	18,933
1009,1	20,876
1009,5	23,248
1009,9	25,762
1010,3	34,705
1010,7	36,533
1011,1	35,619
1011,6	30,819
1012	33,533
1012,4	31,019
1012,8	30,533
1013,2	24,019
1013,6	20,219
1014,1	14,333
1014,5	19,79
1014,9	13,819
1015,3	9,848
1015,7	8,533
1016,1	7,762
1016,6	10,048
1017	12,448
1017,4	14,59
1017,8	24,248
1018,2	28,219
1018,6	26,048
1019,1	28,19
1019,5	27,505
1019,9	27,619
1020,3	23,39
1020,7	18,59
1021,1	13,933
1021,6	18,39
1022	19,562
1022,4	19,705
1022,8	18,562
1023,2	17,562
1023,6	15,962
1024,1	21,39
1024,5	20,362
1024,9	22,19
1025,3	22,619
1025,7	22,276
1026,1	23,533
1026,6	28,248
1027	24,533
1027,4	25,219
1027,8	21,819
1028,2	21,133
1028,6	21,905
1029	21,333
1029,5	15,133
1029,9	18,676
1030,3	18,848
1030,7	23,133
1031,1	24,076
1031,5	26,819
1032	27,819
1032,4	35,419
1032,8	29,962
1033,2	26,048
1033,6	22,105
1034	16,648
1034,4	14,362
1034,9	18,448
1035,3	15,162
1035,7	19,762
1036,1	26,305
1036,5	24,448
1036,9	29,99
1037,4	29,905
1037,8	24,476
1038,2	20,133
1038,6	20,648
1039	17,962
1039,4	25,276
1039,8	25,505
1040,3	28,505
1040,7	33,762
1041,1	29,933
1041,5	32,39
1041,9	30,619
1042,3	21,848
1042,7	18,848
1043,2	19,933
1043,6	19,619
1044	30,419
1044,4	30,59
1044,8	30,876
1045,2	31,876
1045,6	35,019
1046,1	31,676
1046,5	29,762
1046,9	27,419
1047,3	23,933
1047,7	21,819
1048,1	22,076
1048,5	17,905
1049	15,248
1049,4	12,305
1049,8	11,99
1050,2	13,162
1050,6	16,419
1051	19,705
1051,4	19,962
1051,9	27,276
1052,3	30,162
1052,7	29,076
1053,1	24,819
1053,5	19,19
1053,9	17,448
1054,3	15,248
1054,8	9,733
1055,2	8,99
1055,6	7,933
1056	9,933
1056,4	14,848
1056,8	18,59
1057,2	21,505
1057,6	27,248
1058,1	28,476
1058,5	24,648
1058,9	21,105
1059,3	19,619
1059,7	20,133
1060,1	19,219
1060,5	16,133
1061	11,905
1061,4	12,933
1061,8	19,048
1062,2	20,848
1062,6	16,048
1063	17,933
1063,4	16,933
1063,8	18,819
1064,3	25,448
1064,7	27,848
1065,1	30,733
1065,5	34,333
1065,9	35,219
1066,3	31,59
1066,7	37,59
1067,1	35,59
1067,6	32,105
1068	30,362
1068,4	28,105
1068,8	27,162
1069,2	33,99
1069,6	28,562
1070	30,419
1070,4	28,848
1070,9	29,048
1071,3	29,333
1071,7	28,619
1072,1	23,933
1072,5	24,819
1072,9	18,59
1073,3	19,762
1073,7	15,333
1074,2	22,79
1074,6	20,848
1075	25,562
1075,4	29,448
1075,8	27,676
1076,2	30,476
1076,6	33,505
1077	27,905
1077,5	32,533
1077,9	25,733
1078,3	19,619
1078,7	23,305
1079,1	21,419
1079,5	21,105
1079,9	19,533
1080,3	16,248
1080,7	22,619
1081,2	20,533
1081,6	20,248
1082	24,305
1082,4	25,105
1082,8	30,39
1083,2	27,905
1083,6	24,79
1084	27,019
1084,5	29,762
1084,9	20,076
1085,3	16,219
1085,7	12,333
1086,1	17,819
1086,5	15,019
1086,9	17,562
1087,3	15,79
1087,7	23,476
1088,2	29,105
1088,6	29,705
1089	30,019
1089,4	35,362
1089,8	32,619
1090,2	31,476
1090,6	23,79
1091	16,59
1091,4	11,105
1091,9	8,105
1092,3	5,562
1092,7	5,79
1093,1	3,962
1093,5	7,819
1093,9	12,248
1094,3	15,733
1094,7	12,276
1095,1	13,733
1095,5	16,619
1096	18,248
1096,4	20,219
1096,8	25,59
1097,2	25,733
1097,6	30,648
1098	27,19
1098,4	27,39
1098,8	27,19
1099,2	27,79
1099,6	23,562
1100,1	22,648
1100,5	21,39
1100,9	19,248
1101,3	19,248
1101,7	17,619
1102,1	12,933
1102,5	8,676
1102,9	5,276
1103,3	3,619
1103,7	8,19
1104,2	4,562
1104,6	7,162
1105	8,276
1105,4	13,105
1105,8	14,305
1106,2	13,248
1106,6	9,248
1107	8,533
1107,4	6,733
1107,8	6,813
1108,3	0,883
