Data from Subt2_00033.txt Node
Date: Mon Aug 28 13:14:26 MSK 2023
User: vat
Spectrometer: MAYP114033
Trigger mode: 0
Integration Time (sec): 1,000000E0
Scans to average: 5
Electric dark correction enabled: true
Nonlinearity correction enabled: false
Boxcar width: 3
XAxis mode: Wavelengths
Number of Pixels in Spectrum: 2068
>>>>>Begin Spectral Data<<<<<
199,4	-0,583
199,9	2,487
200,4	2,167
200,8	4,167
201,3	4,824
201,8	7,91
202,2	9,795
202,7	11,424
203,2	10,767
203,6	12,681
204,1	13,595
204,6	16,024
205	16,938
205,5	20,31
206	21,624
206,4	21,795
206,9	21,538
207,4	23,681
207,8	23,681
208,3	23,11
208,8	21,51
209,2	23,538
209,7	24,281
210,2	19,395
210,6	16,452
211,1	10,767
211,5	10,367
212	8,51
212,5	5,681
212,9	6,052
213,4	12,595
213,9	15,91
214,3	25,338
214,8	25,91
215,3	25,652
215,7	26,51
216,2	28,91
216,7	27,338
217,1	25,424
217,6	21,224
218,1	18,11
218,5	16,281
219	16,681
219,5	15,224
219,9	19,138
220,4	17,281
220,9	16,71
221,3	21,081
221,8	28,195
222,3	32,738
222,7	31,424
223,2	28,252
223,6	30,51
224,1	32,31
224,6	31,081
225	28,024
225,5	23,995
226	26,081
226,4	27,081
226,9	24,281
227,4	27,252
227,8	25,367
228,3	24,938
228,8	27,11
229,2	31,681
229,7	29,824
230,2	28,338
230,6	21,938
231,1	20,652
231,5	24,11
232	23,738
232,5	19,51
232,9	18,138
233,4	22,424
233,9	24,51
234,3	25,424
234,8	24,452
235,3	18,567
235,7	16,767
236,2	16,224
236,7	11,767
237,1	19,424
237,6	24,024
238,1	17,91
238,5	21,252
239	20,767
239,4	25,795
239,9	27,51
240,4	19,795
240,8	19,281
241,3	26,91
241,8	27,652
242,2	28,481
242,7	28,938
243,2	31,252
243,6	34,938
244,1	28,224
244,6	26,795
245	27,195
245,5	28,767
245,9	24,967
246,4	25,424
246,9	22,738
247,3	28,652
247,8	26,281
248,3	25,738
248,7	26,767
249,2	25,367
249,7	27,11
250,1	24,081
250,6	22,481
251	16,767
251,5	19,452
252	14,024
252,4	15,652
252,9	10,595
253,4	13,595
253,8	10,31
254,3	13,852
254,8	10,424
255,2	14,452
255,7	17,852
256,1	21,938
256,6	22,252
257,1	27,795
257,5	27,852
258	26,081
258,5	23,767
258,9	22,938
259,4	20,11
259,9	19,595
260,3	17,824
260,8	17,538
261,2	19,424
261,7	20,167
262,2	20,138
262,6	19,71
263,1	20,195
263,6	16,938
264	22,081
264,5	19,338
264,9	19,338
265,4	17,738
265,9	18,652
266,3	17,367
266,8	18,167
267,3	15,71
267,7	15,452
268,2	14,767
268,7	13,795
269,1	15,852
269,6	21,91
270	24,195
270,5	22,31
271	26,995
271,4	28,938
271,9	32,252
272,4	31,824
272,8	30,652
273,3	31,281
273,7	27,967
274,2	24,91
274,7	19,795
275,1	17,767
275,6	19,338
276,1	12,967
276,5	13,595
277	20,338
277,4	22,224
277,9	25,71
278,4	22,91
278,8	21,567
279,3	21,938
279,8	18,138
280,2	10,824
280,7	7,452
281,1	7,967
281,6	9,967
282,1	7,91
282,5	11,081
283	12,595
283,4	17,024
283,9	19,824
284,4	21,338
284,8	22,224
285,3	22,91
285,8	24,167
286,2	20,31
286,7	17,481
287,1	17,567
287,6	14,167
288,1	16,224
288,5	10,995
289	10,338
289,5	14,681
289,9	24,052
290,4	26,252
290,8	27,024
291,3	26,967
291,8	35,367
292,2	31,338
292,7	30,538
293,1	27,567
293,6	24,624
294,1	26,081
294,5	19,91
295	18,681
295,5	19,595
295,9	19,31
296,4	18,538
296,8	23,424
297,3	22,681
297,8	23,681
298,2	23,71
298,7	26,567
299,1	25,938
299,6	23,452
300,1	22,081
300,5	21,738
301	26,51
301,5	21,652
301,9	21,938
302,4	21,881
302,8	19,395
303,3	16,795
303,8	16,967
304,2	9,852
304,7	12,795
305,1	9,395
305,6	14,338
306,1	17,367
306,5	17,995
307	19,024
307,4	24,567
307,9	22,481
308,4	24,938
308,8	19,824
309,3	23,681
309,8	25,024
310,2	24,281
310,7	26,281
311,1	26,824
311,6	27,967
312,1	26,91
312,5	20,652
313	18,967
313,4	22,995
313,9	17,824
314,4	21,852
314,8	19,367
315,3	27,252
315,7	32,452
316,2	34,938
316,7	26,595
317,1	27,738
317,6	23,938
318	25,738
318,5	21,595
319	22,71
319,4	19,881
319,9	21,11
320,3	20,31
320,8	24,624
321,3	21,938
321,7	20,51
322,2	18,452
322,6	16,138
323,1	17,395
323,6	17,824
324	14,881
324,5	17,652
324,9	16,624
325,4	15,081
325,9	17,51
326,3	15,252
326,8	12,738
327,2	14,738
327,7	14,91
328,2	17,567
328,6	16,824
329,1	14,938
329,5	17,738
330	22,252
330,5	20,91
330,9	17,281
331,4	18,767
331,8	20,31
332,3	23,224
332,8	24,481
333,2	23,795
333,7	20,224
334,1	22,795
334,6	20,338
335,1	21,681
335,5	22,51
336	22,995
336,4	25,252
336,9	23,738
337,4	25,91
337,8	24,424
338,3	23,481
338,7	20,11
339,2	21,967
339,7	23,052
340,1	23,224
340,6	18,195
341	18,595
341,5	18,624
342	21,195
342,4	22,052
342,9	21,281
343,3	26,595
343,8	26,11
344,2	29,224
344,7	31,795
345,2	33,167
345,6	29,281
346,1	29,995
346,5	25,481
347	33,281
347,5	31,395
347,9	26,652
348,4	22,452
348,8	20,081
349,3	21,881
349,8	27,681
350,2	23,252
350,7	25,195
351,1	26,881
351,6	31,681
352	38,91
352,5	43,51
353	46,452
353,4	55,938
353,9	62,624
354,3	71,595
354,8	81,71
355,3	89,31
355,7	95,852
356,2	112,595
356,6	127,138
357,1	152,167
357,5	175,681
358	199,652
358,5	235,281
358,9	274,995
359,4	313,167
359,8	361,167
360,3	409,481
360,8	469,367
361,2	535,367
361,7	605,967
362,1	679,938
362,6	763,424
363	849,71
363,5	949,738
364	1052,224
364,4	1158,767
364,9	1262,252
365,3	1369,824
365,8	1470,281
366,3	1566,795
366,7	1642,281
367,2	1711,71
367,6	1770,51
368,1	1815,938
368,5	1845,624
369	1862,31
369,5	1861,195
369,9	1849,652
370,4	1827,024
370,8	1789,681
371,3	1737,052
371,7	1675,995
372,2	1609,91
372,7	1534,881
373,1	1458,024
373,6	1369,852
374	1276,252
374,5	1193,395
374,9	1111,195
375,4	1023,252
375,9	945,338
376,3	871,852
376,8	802,767
377,2	740,195
377,7	683,281
378,2	627,767
378,6	582,881
379,1	540,395
379,5	493,567
380	456,967
380,4	426,51
380,9	392,967
381,4	361,938
381,8	338,852
382,3	309,595
382,7	292,224
383,2	267,881
383,6	250,138
384,1	235,024
384,6	223,167
385	210,767
385,5	200,938
385,9	189,852
386,4	181,167
386,8	172,681
387,3	162,195
387,7	152,167
388,2	135,624
388,7	129,567
389,1	116,967
389,6	115,224
390	108,11
390,5	102,224
390,9	95,338
391,4	90,51
391,9	85,252
392,3	87,138
392,8	84,91
393,2	82,138
393,7	75,481
394,1	75,824
394,6	78,652
395,1	75,31
395,5	70,824
396	65,224
396,4	62,481
396,9	62,938
397,3	60,91
397,8	55,167
398,2	56,481
398,7	54,167
399,2	53,11
399,6	56,681
400,1	57,395
400,5	60,538
401	68,681
401,4	67,51
401,9	69,11
402,4	69,424
402,8	65,11
403,3	68,052
403,7	65,481
404,2	63,538
404,6	62,195
405,1	69,281
405,5	70,31
406	70,452
406,5	72,338
406,9	75,681
407,4	75,024
407,8	84,31
408,3	81,138
408,7	85,538
409,2	94,852
409,6	100,224
410,1	103,252
410,6	113,31
411	119,567
411,5	130,624
411,9	144,052
412,4	152,395
412,8	157,967
413,3	174,395
413,7	185,195
414,2	190,967
414,7	201,481
415,1	208,31
415,6	219,681
416	234,995
416,5	245,767
416,9	258,424
417,4	277,852
417,8	291,967
418,3	306,31
418,8	324,995
419,2	343,452
419,7	359,967
420,1	382,11
420,6	397,595
421	424,824
421,5	457,51
421,9	484,11
422,4	512,91
422,8	540,481
423,3	563,195
423,8	592,395
424,2	620,767
424,7	643,252
425,1	673,367
425,6	706,167
426	744,595
426,5	784,224
426,9	833,624
427,4	873,652
427,9	922,624
428,3	968,424
428,8	1015,595
429,2	1067,31
429,7	1121,71
430,1	1171,938
430,6	1240,281
431	1307,538
431,5	1376,852
431,9	1451,395
432,4	1525,395
432,8	1610,281
433,3	1700,681
433,8	1781,395
434,2	1869,767
434,7	1961,024
435,1	2059,538
435,6	2163,624
436	2267,024
436,5	2373,595
436,9	2491,938
437,4	2609,91
437,8	2733,052
438,3	2863,395
438,8	3001,881
439,2	3146,538
439,7	3296,195
440,1	3438,767
440,6	3590,138
441	3757,052
441,5	3919,738
441,9	4087,681
442,4	4257,652
442,8	4445,795
443,3	4649,281
443,7	4857,281
444,2	5057,481
444,7	5277,71
445,1	5498,167
445,6	5726,481
446	5956,167
446,5	6187,452
446,9	6419,481
447,4	6676,538
447,8	6927,738
448,3	7185,281
448,7	7442,167
449,2	7693,024
449,6	7966,795
450,1	8248,738
450,6	8523,224
451	8796,224
451,5	9100,081
451,9	9403,31
452,4	9726,367
452,8	10044,11
453,3	10362,195
453,7	10687,738
454,2	11032,395
454,6	11356,938
455,1	11697,824
455,5	12030,338
456	12367,081
456,4	12720,31
456,9	13075,195
457,3	13426,595
457,8	13796,51
458,3	14163,995
458,7	14537,995
459,2	14921,424
459,6	15303,91
460,1	15683,338
460,5	16073,538
461	16447,652
461,4	16831,195
461,9	17209,595
462,3	17577,481
462,8	17955,938
463,2	18332,51
463,7	18702,824
464,1	19090,624
464,6	19477,967
465	19863,252
465,5	20248,252
466	20617,624
466,4	20994,767
466,9	21370,281
467,3	21723,71
467,8	22078,167
468,2	22440,195
468,7	22811,452
469,1	23181,51
469,6	23545,167
470	23912,567
470,5	24275,367
470,9	24620,795
471,4	24971,567
471,8	25292,51
472,3	25614,824
472,7	25933,538
473,2	26252,424
473,6	26567,081
474,1	26879,767
474,5	27174,595
475	27477,11
475,4	27760,595
475,9	28040,938
476,4	28306,052
476,8	28561,624
477,3	28810,281
477,7	29048,081
478,2	29278,595
478,6	29528,824
479,1	29743,881
479,5	29951,938
480	30163,91
480,4	30363,795
480,9	30558,252
481,3	30743,481
481,8	30900,538
482,2	31065,624
482,7	31220,995
483,1	31358,395
483,6	31494,567
484	31613,281
484,5	31730,424
484,9	31837,852
485,4	31918,681
485,8	31977,967
486,3	32044,538
486,7	32099,395
487,2	32162,938
487,6	32195,567
488,1	32217,824
488,5	32263,538
489	32300,51
489,4	32313,281
489,9	32323,852
490,4	32301,767
490,8	32284,138
491,3	32269,052
491,7	32227,252
492,2	32178,195
492,6	32123,824
493,1	32060,681
493,5	31984,738
494	31918,31
494,4	31830,024
494,9	31729,681
495,3	31633,995
495,8	31530,624
496,2	31414,167
496,7	31317,881
497,1	31212,424
497,6	31085,795
498	30976,567
498,5	30848,481
498,9	30716,138
499,4	30590,367
499,8	30446,281
500,3	30281,738
500,7	30135,738
501,2	29984,338
501,6	29822,624
502,1	29657,51
502,5	29478,538
503	29323,252
503,4	29161,795
503,9	28990,395
504,3	28811,91
504,8	28641,338
505,2	28452,081
505,7	28263,281
506,1	28047,767
506,6	27827,938
507	27623,367
507,5	27420,11
507,9	27204,195
508,4	26997,138
508,8	26787,51
509,3	26575,91
509,7	26379,967
510,2	26149,852
510,6	25917,652
511,1	25704,51
511,5	25478,595
512	25265,767
512,4	25039,395
512,9	24794,081
513,3	24579,51
513,8	24357,738
514,2	24113,938
514,7	23881,681
515,1	23646,824
515,6	23417,538
516	23199,167
516,5	22955,567
516,9	22721,538
517,4	22489,595
517,8	22258,11
518,3	22026,452
518,7	21794,424
519,2	21552,338
519,6	21335,538
520,1	21106,852
520,5	20886,71
521	20668,652
521,4	20436,967
521,9	20213,938
522,3	20003,795
522,8	19780,395
523,2	19557,652
523,7	19339,338
524,1	19109,252
524,6	18900,881
525	18691,252
525,5	18474,424
525,9	18269,11
526,4	18069,624
526,8	17868,881
527,3	17677,767
527,7	17480,852
528,2	17281,652
528,6	17102,538
529,1	16903,424
529,5	16719,595
530	16535,652
530,4	16357,852
530,9	16165,967
531,3	15987,31
531,8	15791,881
532,2	15607,31
532,6	15418,424
533,1	15222,167
533,5	15039,338
534	14868,281
534,4	14682,11
534,9	14520,852
535,3	14357,91
535,8	14185,167
536,2	14039,252
536,7	13876,71
537,1	13717,11
537,6	13578,738
538	13420,338
538,5	13272,424
538,9	13118,652
539,4	12962,738
539,8	12808,938
540,3	12668,024
540,7	12516,967
541,2	12369,91
541,6	12232,967
542,1	12097,852
542,5	11965,824
543	11848,967
543,4	11713,424
543,9	11591,052
544,3	11474,167
544,8	11343,71
545,2	11225,481
545,7	11098,824
546,1	10970,138
546,5	10843,224
547	10713,167
547,4	10577,795
547,9	10468,167
548,3	10352,852
548,8	10232,652
549,2	10117,91
549,7	10011,11
550,1	9902,881
550,6	9808,195
551	9697,281
551,5	9597,567
551,9	9513,395
552,4	9414,138
552,8	9317,052
553,3	9231,71
553,7	9136,51
554,2	9036,652
554,6	8941,995
555,1	8845,795
555,5	8753,481
555,9	8667,767
556,4	8571,338
556,8	8484,081
557,3	8397,51
557,7	8311,538
558,2	8229,481
558,6	8155,767
559,1	8078,424
559,5	8001,224
560	7919,967
560,4	7845,024
560,9	7773,281
561,3	7690,481
561,8	7614,624
562,2	7534,595
562,7	7462,567
563,1	7396,881
563,6	7325,338
564	7249,795
564,4	7186,081
564,9	7116,452
565,3	7046,052
565,8	6980,852
566,2	6913,024
566,7	6860,338
567,1	6801,51
567,6	6737,51
568	6676,424
568,5	6616,995
568,9	6553,795
569,4	6490,195
569,8	6419,795
570,3	6353,91
570,7	6290,138
571,1	6230,052
571,6	6173,795
572	6124,252
572,5	6072,767
572,9	6014,681
573,4	5962,738
573,8	5916,424
574,3	5869,11
574,7	5818,281
575,2	5760,91
575,6	5707,052
576,1	5657,967
576,5	5613,167
576,9	5559,967
577,4	5512,11
577,8	5454,424
578,3	5404,081
578,7	5355,71
579,2	5308,795
579,6	5263,11
580,1	5223,681
580,5	5176,138
581	5145,938
581,4	5102,652
581,9	5060,052
582,3	5020,995
582,7	4976,367
583,2	4929,652
583,6	4886,738
584,1	4843,652
584,5	4805,395
585	4766,51
585,4	4728,738
585,9	4680,795
586,3	4641,224
586,8	4594,71
587,2	4553,967
587,6	4518,652
588,1	4491,167
588,5	4448,852
589	4418,224
589,4	4383,738
589,9	4355,652
590,3	4322,852
590,8	4284,595
591,2	4240,538
591,7	4211,538
592,1	4183,195
592,5	4148,767
593	4120,824
593,4	4088,367
593,9	4055,824
594,3	4028,281
594,8	3998,938
595,2	3967,195
595,7	3938,995
596,1	3909,967
596,6	3874,824
597	3852,795
597,4	3827,652
597,9	3798,967
598,3	3777,11
598,8	3751,138
599,2	3723,395
599,7	3705,224
600,1	3675,31
600,6	3646,852
601	3619,71
601,4	3588,767
601,9	3559,91
602,3	3533,91
602,8	3511,481
603,2	3484,795
603,7	3457,538
604,1	3436,681
604,6	3416,795
605	3397,71
605,4	3372,281
605,9	3343,452
606,3	3315,567
606,8	3292,824
607,2	3265,167
607,7	3238,481
608,1	3215,395
608,6	3195,881
609	3172,738
609,4	3152,252
609,9	3126,681
610,3	3110,852
610,8	3089,367
611,2	3068,767
611,7	3041,11
612,1	3021,452
612,6	3003,852
613	2981,51
613,4	2954,424
613,9	2935,052
614,3	2907,881
614,8	2887,624
615,2	2866,681
615,7	2847,995
616,1	2834,024
616,6	2819,11
617	2795,481
617,4	2777,681
617,9	2755,738
618,3	2740,824
618,8	2724,91
619,2	2702,281
619,7	2676,367
620,1	2660,738
620,5	2636,852
621	2623,138
621,4	2601,424
621,9	2576,224
622,3	2561,681
622,8	2543,852
623,2	2523,738
623,6	2512,624
624,1	2495,795
624,5	2483,538
625	2467,567
625,4	2444,224
625,9	2431,11
626,3	2412,881
626,8	2397,224
627,2	2377,081
627,6	2354,795
628,1	2337,367
628,5	2322,652
629	2313,11
629,4	2298,024
629,9	2273,11
630,3	2256,481
630,7	2240,852
631,2	2226,195
631,6	2205,738
632,1	2180,224
632,5	2163,338
633	2150,31
633,4	2134,881
633,8	2114,795
634,3	2094,595
634,7	2083,681
635,2	2065,538
635,6	2043,195
636,1	2027,081
636,5	2011,538
636,9	1994,71
637,4	1983,51
637,8	1970,224
638,3	1957,795
638,7	1947,852
639,2	1940,31
639,6	1926,795
640	1919,052
640,5	1909,71
640,9	1898,938
641,4	1890,595
641,8	1876,967
642,2	1863,567
642,7	1856,281
643,1	1843,424
643,6	1829,338
644	1820,081
644,5	1808,938
644,9	1800,967
645,3	1784,195
645,8	1769,681
646,2	1752,167
646,7	1732,424
647,1	1708,767
647,6	1690,652
648	1677,081
648,4	1670,567
648,9	1658,252
649,3	1650,481
649,8	1649,395
650,2	1645,881
650,6	1640,51
651,1	1631,138
651,5	1617,881
652	1611,595
652,4	1604,395
652,9	1587,738
653,3	1573,567
653,7	1559,938
654,2	1545,795
654,6	1537,91
655,1	1522,081
655,5	1510,11
655,9	1499,138
656,4	1487,567
656,8	1481,024
657,3	1477,738
657,7	1467,71
658,2	1455,252
658,6	1444,481
659	1435,91
659,5	1427,481
659,9	1414,652
660,4	1401,11
660,8	1390,852
661,2	1380,052
661,7	1367,681
662,1	1359,824
662,6	1356,11
663	1347,51
663,4	1339,624
663,9	1332,11
664,3	1321,195
664,8	1315,338
665,2	1307,995
665,6	1296,767
666,1	1287,281
666,5	1275,395
667	1260,281
667,4	1259,538
667,9	1248,424
668,3	1238,024
668,7	1224,167
669,2	1211,995
669,6	1200,91
670,1	1193,338
670,5	1183,767
670,9	1174,595
671,4	1161,995
671,8	1155,224
672,3	1149,167
672,7	1147,338
673,1	1144,252
673,6	1135,881
674	1127,281
674,5	1121,624
674,9	1113,281
675,3	1104,881
675,8	1092,081
676,2	1076,31
676,7	1068,995
677,1	1059,424
677,5	1053,024
678	1049,738
678,4	1046,024
678,9	1037,652
679,3	1035,738
679,7	1023,652
680,2	1015,567
680,6	1010,91
681,1	999,595
681,5	992,767
681,9	987,738
682,4	976,167
682,8	969,567
683,3	966,681
683,7	958,881
684,1	949,767
684,6	942,652
685	933,424
685,5	921,395
685,9	914,71
686,3	913,595
686,8	907,938
687,2	905,595
687,7	898,652
688,1	896,167
688,5	895,652
689	896,167
689,4	880,795
689,9	872,681
690,3	861,738
690,7	855,938
691,2	850,681
691,6	845,31
692	833,624
692,5	830,852
692,9	827,281
693,4	822,367
693,8	812,395
694,2	802,481
694,7	797,052
695,1	798,424
695,6	794,71
696	788,195
696,4	781,538
696,9	775,795
697,3	775,538
697,8	773,967
698,2	762,738
698,6	755,024
699,1	750,281
699,5	749,31
699,9	747,995
700,4	742,71
700,8	734,024
701,3	729,452
701,7	723,567
702,1	718,338
702,6	713,567
703	709,167
703,5	698,967
703,9	697,938
704,3	691,51
704,8	685,995
705,2	675,852
705,6	669,138
706,1	660,852
706,5	665,538
707	661,51
707,4	661,652
707,8	660,652
708,3	658,995
708,7	653,852
709,2	649,395
709,6	639,367
710	629,595
710,5	617,938
710,9	612,51
711,3	607,881
711,8	600,967
712,2	597,595
712,7	588,481
713,1	585,567
713,5	587,138
714	580,567
714,4	576,652
714,8	576,681
715,3	572,91
715,7	572,195
716,2	570,31
716,6	566,738
717	569,51
717,5	558,681
717,9	556,31
718,3	553,452
718,8	552,624
719,2	549,624
719,7	543,681
720,1	536,395
720,5	541,51
721	533,138
721,4	524,11
721,8	516,595
722,3	512,367
722,7	507,767
723,2	502,452
723,6	498,71
724	501,024
724,5	502,481
724,9	497,481
725,3	488,024
725,8	480,195
726,2	475,224
726,7	469,938
727,1	462,595
727,5	457,224
728	451,538
728,4	449,567
728,8	451,538
729,3	450,424
729,7	446,138
730,1	443,338
730,6	439,424
731	438,652
731,5	439,11
731,9	434,881
732,3	433,767
732,8	430,167
733,2	431,195
733,6	433,024
734,1	427,195
734,5	424,71
734,9	417,395
735,4	411,824
735,8	410,367
736,3	398,624
736,7	393,252
737,1	397,881
737,6	394,31
738	397,91
738,4	398,252
738,9	396,224
739,3	400,081
739,7	398,024
740,2	395,138
740,6	395,881
741,1	389,424
741,5	384,738
741,9	380,167
742,4	381,652
742,8	378,167
743,2	373,538
743,7	370,338
744,1	372,71
744,5	372,395
745	368,595
745,4	364,281
745,8	363,652
746,3	361,624
746,7	355,938
747,2	352,452
747,6	351,624
748	356,967
748,5	354,395
748,9	349,452
749,3	351,567
749,8	351,71
750,2	346,338
750,6	338,31
751,1	334,681
751,5	335,252
751,9	335,567
752,4	336,052
752,8	333,91
753,3	337,11
753,7	337,338
754,1	331,995
754,6	325,995
755	323,195
755,4	320,767
755,9	321,052
756,3	321,31
756,7	321,252
757,2	317,71
757,6	314,252
758	314,824
758,5	305,452
758,9	302,224
759,3	295,395
759,8	292,081
760,2	292,424
760,6	298,024
761,1	296,967
761,5	297,881
761,9	293,795
762,4	293,11
762,8	292,852
763,3	293,252
763,7	288,052
764,1	280,824
764,6	277,51
765	277,481
765,4	277,767
765,9	276,91
766,3	275,681
766,7	273,938
767,2	275,167
767,6	277,71
768	270,967
768,5	265,881
768,9	261,224
769,3	257,138
769,8	251,338
770,2	251,824
770,6	248,624
771,1	246,424
771,5	250,538
771,9	251,195
772,4	252,481
772,8	253,71
773,2	255,195
773,7	250,052
774,1	256,738
774,5	255,595
775	253,081
775,4	250,938
775,8	249,11
776,3	243,51
776,7	243,252
777,1	237,624
777,6	228,852
778	224,824
778,4	224,224
778,9	223,881
779,3	222,681
779,7	222,938
780,2	225,052
780,6	229,795
781	228,795
781,5	224,881
781,9	223,738
782,3	218,481
782,8	219,024
783,2	211,567
783,6	206,195
784,1	207,767
784,5	207,481
784,9	201,395
785,4	204,281
785,8	197,538
786,2	198,738
786,7	199,71
787,1	201,91
787,5	200,424
788	203,424
788,4	206,852
788,8	206,481
789,3	207,995
789,7	204,138
790,1	199,995
790,6	198,824
791	192,138
791,4	188,338
791,9	187,395
792,3	184,281
792,7	186,281
793,2	185,938
793,6	180,938
794	181,367
794,5	173,738
794,9	173,252
795,3	174,281
795,8	175,852
796,2	168,281
796,6	170,452
797,1	172,738
797,5	176,938
797,9	180,195
798,4	176,738
798,8	170,881
799,2	174,367
799,7	169,481
800,1	168,252
800,5	170,538
801	168,538
801,4	168,138
801,8	165,881
802,2	163,967
802,7	163,767
803,1	165,481
803,5	158,538
804	152,738
804,4	153,51
804,8	158,824
805,3	157,452
805,7	160,195
806,1	152,31
806,6	151,281
807	153,281
807,4	152,31
807,9	144,881
808,3	145,767
808,7	142,938
809,2	143,567
809,6	144,395
810	140,938
810,4	137,767
810,9	141,738
811,3	143,795
811,7	142,738
812,2	144,367
812,6	140,481
813	145,224
813,5	148,338
813,9	146,052
814,3	139,31
814,8	136,538
815,2	139,395
815,6	142,795
816,1	142,938
816,5	138,481
816,9	138,167
817,3	139,281
817,8	143,024
818,2	138,138
818,6	137,281
819,1	132,938
819,5	132,367
819,9	133,052
820,4	137,052
820,8	135,31
821,2	129,567
821,7	126,224
822,1	125,11
822,5	125,91
822,9	120,138
823,4	116,252
823,8	116,452
824,2	120,31
824,7	119,738
825,1	113,367
825,5	110,51
826	104,995
826,4	102,452
826,8	98,252
827,3	97,881
827,7	95,795
828,1	100,081
828,5	103,224
829	110,281
829,4	109,252
829,8	110,852
830,3	113,195
830,7	113,624
831,1	110,938
831,6	103,138
832	101,252
832,4	101,852
832,8	98,91
833,3	94,738
833,7	90,195
834,1	90,71
834,6	97,452
835	97,852
835,4	94,71
835,8	95,395
836,3	93,167
836,7	95,081
837,1	93,195
837,6	83,995
838	81,024
838,4	78,824
838,9	81,824
839,3	83,852
839,7	84,452
840,1	90,481
840,6	96,424
841	96,852
841,4	95,91
841,9	91,367
842,3	87,681
842,7	87,024
843,1	81,252
843,6	76,224
844	78,11
844,4	83,681
844,9	83,252
845,3	85,738
845,7	83,052
846,2	84,767
846,6	89,681
847	90,167
847,4	90,338
847,9	90,424
848,3	84,052
848,7	85,795
849,2	85,71
849,6	85,11
850	80,081
850,4	72,31
850,9	71,681
851,3	78,538
851,7	77,138
852,2	75,538
852,6	71,624
853	74,538
853,4	75,567
853,9	74,652
854,3	73,395
854,7	77,024
855,2	75,795
855,6	73,738
856	74,967
856,4	73,795
856,9	74,081
857,3	70,967
857,7	66,767
858,2	65,338
858,6	63,938
859	61,624
859,4	63,795
859,9	64,367
860,3	66,167
860,7	65,481
861,1	69,31
861,6	72,71
862	69,852
862,4	66,681
862,9	65,91
863,3	63,281
863,7	62,824
864,1	56,51
864,6	57,424
865	58,567
865,4	62,224
865,9	62,052
866,3	63,71
866,7	59,995
867,1	64,31
867,6	64,452
868	61,71
868,4	60,424
868,8	59,824
869,3	61,938
869,7	69,395
870,1	66,224
870,6	62,395
871	52,052
871,4	52,424
871,8	49,881
872,3	45,595
872,7	34,938
873,1	29,967
873,5	28,052
874	41,51
874,4	43,595
874,8	43,11
875,3	40,824
875,7	43,567
876,1	53,624
876,5	54,424
877	50,824
877,4	49,367
877,8	49,081
878,2	54,795
878,7	58,31
879,1	50,681
879,5	51,824
879,9	50,71
880,4	46,881
880,8	48,395
881,2	42,995
881,7	44,31
882,1	45,31
882,5	44,881
882,9	46,567
883,4	49,595
883,8	49,624
884,2	50,538
884,6	44,138
885,1	44,224
885,5	44,91
885,9	43,452
886,3	40,452
886,8	43,71
887,2	42,367
887,6	43,652
888	46,11
888,5	44,367
888,9	39,395
889,3	38,252
889,8	35,567
890,2	35,481
890,6	38,652
891	38,452
891,5	40,567
891,9	46,91
892,3	51,852
892,7	51,252
893,2	56,367
893,6	52,795
894	49,738
894,4	45,624
894,9	44,31
895,3	42,824
895,7	39,995
896,1	35,252
896,6	35,052
897	38,967
897,4	41,31
897,8	41,367
898,3	40,195
898,7	42,252
899,1	40,852
899,5	45,652
900	40,595
900,4	36,51
900,8	30,424
901,2	30,567
901,7	29,938
902,1	32,252
902,5	30,424
902,9	30,767
903,4	35,081
903,8	36,624
904,2	37,652
904,6	35,367
905,1	33,481
905,5	33,452
905,9	31,167
906,3	29,452
906,8	33,395
907,2	28,395
907,6	31,252
908	28,224
908,5	25,938
908,9	27,081
909,3	28,224
909,7	27,052
910,2	30,224
910,6	25,681
911	30,51
911,4	29,395
911,9	32,452
912,3	30,31
912,7	31,967
913,1	25,824
913,6	30,31
914	32,195
914,4	36,795
914,8	35,024
915,3	35,71
915,7	37,338
916,1	41,795
916,5	38,052
916,9	32,367
917,4	26,081
917,8	24,767
918,2	27,081
918,6	24,852
919,1	24,338
919,5	27,767
919,9	32,595
920,3	36,11
920,8	36,652
921,2	32,081
921,6	27,767
922	25,967
922,5	26,624
922,9	25,252
923,3	29,567
923,7	28,624
924,2	33,995
924,6	37,024
925	40,795
925,4	34,595
925,8	32,452
926,3	24,824
926,7	26,567
927,1	25,252
927,5	25,452
928	25,052
928,4	25,681
928,8	28,738
929,2	30,624
929,7	33,652
930,1	31,452
930,5	30,338
930,9	27,395
931,3	36,51
931,8	35,024
932,2	34,11
932,6	29,824
933	25,252
933,5	25,824
933,9	28,167
934,3	20,252
934,7	20,281
935,2	18,167
935,6	15,052
936	15,138
936,4	12,567
936,8	8,71
937,3	10,967
937,7	11,11
938,1	16,481
938,5	17,738
939	21,195
939,4	24,71
939,8	25,681
940,2	23,51
940,6	17,967
941,1	14,452
941,5	15,052
941,9	17,11
942,3	17,338
942,8	18,224
943,2	16,681
943,6	18,567
944	21,081
944,4	20,652
944,9	17,967
945,3	17,424
945,7	19,51
946,1	22,31
946,6	22,767
947	19,881
947,4	19,424
947,8	20,481
948,2	22,338
948,7	20,338
949,1	22,338
949,5	20,338
949,9	22,424
950,3	20,224
950,8	19,024
951,2	16,224
951,6	19,367
952	18,024
952,5	16,395
952,9	14,91
953,3	15,538
953,7	15,31
954,1	16,595
954,6	16,481
955	16,081
955,4	19,252
955,8	24,624
956,2	26,995
956,7	30,11
957,1	29,767
957,5	29,824
957,9	27,052
958,3	26,081
958,8	21,795
959,2	21,938
959,6	25,395
960	23,281
960,5	18,224
960,9	24,71
961,3	24,395
961,7	28,138
962,1	27,995
962,6	21,624
963	24,71
963,4	31,338
963,8	27,167
964,2	28,281
964,7	23,281
965,1	24,91
965,5	29,681
965,9	25,395
966,3	25,367
966,8	24,481
967,2	26,281
967,6	24,224
968	24,538
968,4	23,795
968,9	24,681
969,3	24,395
969,7	18,595
970,1	20,081
970,5	22,595
971	22,71
971,4	20,738
971,8	22,252
972,2	20,852
972,6	25,338
973,1	23,595
973,5	26,595
973,9	20,852
974,3	20,338
974,7	19,195
975,2	20,338
975,6	18,538
976	17,767
976,4	18,71
976,8	22,31
977,3	21,567
977,7	20,624
978,1	20,31
978,5	21,567
978,9	25,567
979,4	22,91
979,8	20,11
980,2	19,967
980,6	23,452
981	18,51
981,5	20,481
981,9	16,338
982,3	12,338
982,7	13,595
983,1	16,224
983,6	13,852
984	17,71
984,4	18,795
984,8	16,738
985,2	21,081
985,6	19,31
986,1	8,538
986,5	11,881
986,9	12,167
987,3	6,824
987,7	7,31
988,2	5,138
988,6	4,881
989	16,424
989,4	13,31
989,8	11,938
990,3	15,052
990,7	16,652
991,1	17,281
991,5	20,852
991,9	14,367
992,3	10,424
992,8	3,338
993,2	5,767
993,6	7,51
994	12,167
994,4	12,224
994,9	14,967
995,3	21,852
995,7	29,138
996,1	30,395
996,5	26,452
996,9	23,367
997,4	23,11
997,8	22,624
998,2	20,767
998,6	21,395
999	18,652
999,5	20,824
999,9	22,167
1000,3	20,71
1000,7	24,538
1001,1	22,31
1001,5	23,624
1002	23,081
1002,4	25,024
1002,8	27,11
1003,2	24,281
1003,6	21,224
1004	25,681
1004,5	22,367
1004,9	23,595
1005,3	20,938
1005,7	19,252
1006,1	22,31
1006,6	23,652
1007	17,595
1007,4	16,395
1007,8	15,31
1008,2	19,624
1008,6	15,967
1009,1	17,224
1009,5	17,624
1009,9	23,424
1010,3	24,995
1010,7	25,024
1011,1	21,595
1011,6	22,395
1012	24,681
1012,4	20,767
1012,8	15,51
1013,2	14,195
1013,6	17,91
1014,1	16,224
1014,5	18,081
1014,9	13,538
1015,3	17,224
1015,7	19,338
1016,1	20,995
1016,6	18,052
1017	22,967
1017,4	16,052
1017,8	23,938
1018,2	19,481
1018,6	17,624
1019,1	17,938
1019,5	18,795
1019,9	18,424
1020,3	23,71
1020,7	19,252
1021,1	20,595
1021,6	19,767
1022	23,024
1022,4	19,395
1022,8	15,224
1023,2	14,052
1023,6	11,167
1024,1	14,938
1024,5	17,767
1024,9	15,852
1025,3	20,567
1025,7	20,138
1026,1	18,167
1026,6	25,167
1027	19,624
1027,4	21,538
1027,8	17,167
1028,2	20,224
1028,6	22,281
1029	20,91
1029,5	16,167
1029,9	25,167
1030,3	22,424
1030,7	25,738
1031,1	22,481
1031,5	26,795
1032	31,338
1032,4	38,567
1032,8	30,738
1033,2	24,338
1033,6	23,538
1034	19,938
1034,4	14,31
1034,9	15,91
1035,3	12,167
1035,7	11,624
1036,1	23,138
1036,5	20,424
1036,9	23,852
1037,4	30,338
1037,8	28,11
1038,2	26,652
1038,6	30,967
1039	28,995
1039,4	31,881
1039,8	32,167
1040,3	25,738
1040,7	28,538
1041,1	25,424
1041,5	24,938
1041,9	24,11
1042,3	22,452
1042,7	22,738
1043,2	26,11
1043,6	29,595
1044	32,624
1044,4	35,681
1044,8	32,795
1045,2	32,567
1045,6	34,91
1046,1	35,938
1046,5	29,767
1046,9	28,852
1047,3	27,881
1047,7	26,91
1048,1	26,052
1048,5	25,767
1049	21,31
1049,4	16,024
1049,8	17,481
1050,2	18,452
1050,6	21,481
1051	25,595
1051,4	23,338
1051,9	29,224
1052,3	33,167
1052,7	29,767
1053,1	24,024
1053,5	22,338
1053,9	21,252
1054,3	14,795
1054,8	11,224
1055,2	13,31
1055,6	14,681
1056	17,681
1056,4	17,995
1056,8	21,11
1057,2	22,395
1057,6	23,224
1058,1	21,538
1058,5	19,481
1058,9	16,395
1059,3	15,252
1059,7	10,024
1060,1	9,938
1060,5	8,567
1061	7,024
1061,4	8,395
1061,8	13,224
1062,2	16,681
1062,6	17,624
1063	22,71
1063,4	21,081
1063,8	22,738
1064,3	29,024
1064,7	27,967
1065,1	26,224
1065,5	29,081
1065,9	33,652
1066,3	36,281
1066,7	41,081
1067,1	35,367
1067,6	30,624
1068	33,11
1068,4	28,767
1068,8	22,767
1069,2	23,652
1069,6	20,167
1070	21,338
1070,4	24,795
1070,9	25,881
1071,3	29,624
1071,7	27,081
1072,1	22,167
1072,5	24,824
1072,9	21,995
1073,3	21,938
1073,7	15,738
1074,2	15,995
1074,6	16,252
1075	22,738
1075,4	22,938
1075,8	21,195
1076,2	21,11
1076,6	25,51
1077	24,224
1077,5	25,91
1077,9	19,367
1078,3	17,138
1078,7	21,138
1079,1	19,938
1079,5	17,567
1079,9	22,224
1080,3	23,767
1080,7	26,595
1081,2	22,252
1081,6	21,195
1082	28,452
1082,4	30,195
1082,8	26,481
1083,2	22,567
1083,6	22,252
1084	26,995
1084,5	29,052
1084,9	20,652
1085,3	14,481
1085,7	13,51
1086,1	16,138
1086,5	16,281
1086,9	16,767
1087,3	13,51
1087,7	18,824
1088,2	24,795
1088,6	26,11
1089	23,081
1089,4	26,11
1089,8	22,652
1090,2	19,452
1090,6	16,938
1091	10,795
1091,4	5,281
1091,9	5,738
1092,3	3,167
1092,7	4,624
1093,1	11,052
1093,5	9,652
1093,9	10,881
1094,3	12,567
1094,7	9,71
1095,1	8,681
1095,5	7,024
1096	6,252
1096,4	5,081
1096,8	10,167
1097,2	13,138
1097,6	20,195
1098	21,395
1098,4	21,51
1098,8	23,167
1099,2	25,138
1099,6	25,652
1100,1	25,91
1100,5	21,195
1100,9	17,224
1101,3	19,052
1101,7	12,995
1102,1	12,681
1102,5	9,995
1102,9	5,595
1103,3	7,881
1103,7	9,824
1104,2	5,938
1104,6	12,367
1105	10,052
1105,4	10,452
1105,8	10,824
1106,2	8,795
1106,6	7,767
1107	8,367
1107,4	3
1107,8	2,967
1108,3	0,667
