Data from Subt2_265.txt Node
Date: Sat Aug 26 19:02:13 MSK 2023
User: vat
Spectrometer: MAYP114033
Trigger mode: 0
Integration Time (sec): 1,000000E0
Scans to average: 5
Electric dark correction enabled: true
Nonlinearity correction enabled: false
Boxcar width: 3
XAxis mode: Wavelengths
Number of Pixels in Spectrum: 2068
>>>>>Begin Spectral Data<<<<<
199,4	-0,583
199,9	-0,953
200,4	-1,7
200,8	-1,205
201,3	-3,49
201,8	-2,548
202,2	-5,262
202,7	-1,519
203,2	-0,005
203,6	-0,005
204,1	-0,805
204,6	0,481
205	0,452
205,5	1,938
206	1,567
206,4	0,681
206,9	1,367
207,4	5,51
207,8	7,138
208,3	6,224
208,8	6,595
209,2	5,595
209,7	7,995
210,2	10,138
210,6	7,852
211,1	7,595
211,5	5,995
212	7,995
212,5	4,624
212,9	-1,633
213,4	-3,576
213,9	-3,69
214,3	-3,148
214,8	0,852
215,3	-0,262
215,7	2,795
216,2	6,195
216,7	6,738
217,1	4,481
217,6	5,024
218,1	2,481
218,5	0,938
219	-3,605
219,5	-0,233
219,9	-2,519
220,4	3,481
220,9	0,852
221,3	-0,062
221,8	3,052
222,3	4,252
222,7	2,424
223,2	4,281
223,6	-2,49
224,1	-1,548
224,6	3,452
225	-0,005
225,5	5,11
226	4,338
226,4	7,71
226,9	12,481
227,4	14,252
227,8	7,881
228,3	8,681
228,8	8,71
229,2	11,538
229,7	8,938
230,2	7,795
230,6	11,595
231,1	15,795
231,5	16,481
232	13,081
232,5	8,367
232,9	9,281
233,4	7,995
233,9	3,938
234,3	3,024
234,8	4,052
235,3	4,338
235,7	5,938
236,2	7,824
236,7	6,652
237,1	8,624
237,6	7,738
238,1	5,995
238,5	1,281
239	3,338
239,4	2,31
239,9	0,71
240,4	-3,205
240,8	0,024
241,3	0,852
241,8	2,767
242,2	0,738
242,7	-0,433
243,2	5,538
243,6	6,624
244,1	3,052
244,6	5,652
245	2,938
245,5	4,852
245,9	1,338
246,4	-3,005
246,9	-1,319
247,3	-0,976
247,8	2,424
248,3	9,852
248,7	8,738
249,2	16,11
249,7	15,481
250,1	13,624
250,6	15,167
251	10,081
251,5	7,681
252	7,995
252,4	6,167
252,9	5,481
253,4	2,224
253,8	-0,948
254,3	-0,462
254,8	-0,205
255,2	-0,519
255,7	-5,176
256,1	-2,09
256,6	1,081
257,1	3,195
257,5	-0,005
258	-0,89
258,5	-2,49
258,9	0,738
259,4	-1,033
259,9	4,367
260,3	-1,462
260,8	-5,605
261,2	-7,319
261,7	-2,233
262,2	-3,748
262,6	-1,748
263,1	-3,69
263,6	2,71
264	10,938
264,5	20,567
264,9	15,024
265,4	15,281
265,9	10,681
266,3	12,91
266,8	16,424
267,3	15,11
267,7	7,024
268,2	9,252
268,7	8,795
269,1	16,167
269,6	9,71
270	8,852
270,5	8,538
271	6,681
271,4	6,195
271,9	0,881
272,4	0,481
272,8	0,967
273,3	-4,49
273,7	-4,062
274,2	-1,005
274,7	1,138
275,1	6,595
275,6	4,652
276,1	4,252
276,5	9,424
277	9,824
277,4	9,395
277,9	4,881
278,4	6,395
278,8	7,052
279,3	8,31
279,8	4,71
280,2	5,195
280,7	9,91
281,1	9,681
281,6	7,51
282,1	7,395
282,5	7,081
283	9,481
283,4	8,481
283,9	4,367
284,4	8,481
284,8	11,738
285,3	10,252
285,8	12,138
286,2	12,624
286,7	10,624
287,1	10,024
287,6	8,31
288,1	1,938
288,5	5,567
289	2,452
289,5	2,767
289,9	1,281
290,4	4,938
290,8	6,452
291,3	11,481
291,8	7,967
292,2	7,567
292,7	9,395
293,1	9,967
293,6	9,138
294,1	8,281
294,5	6,338
295	4,367
295,5	1,281
295,9	-1,662
296,4	-2,719
296,8	-6,148
297,3	-8,519
297,8	-7,919
298,2	-10,576
298,7	-2,205
299,1	-0,49
299,6	-1,576
300,1	0,652
300,5	5,024
301	6,51
301,5	13,138
301,9	10,881
302,4	4,852
302,8	10,081
303,3	11,881
303,8	5,452
304,2	1,367
304,7	0,452
305,1	-5,948
305,6	-2,976
306,1	1,167
306,5	-1,462
307	7,281
307,4	10,738
307,9	6,938
308,4	12,567
308,8	10,824
309,3	3,595
309,8	4,481
310,2	1,167
310,7	-5,062
311,1	-2,776
311,6	-2,833
312,1	1,767
312,5	5,367
313	6,367
313,4	6,424
313,9	10,138
314,4	9,567
314,8	5,024
315,3	2,595
315,7	3,138
316,2	0,881
316,7	-1,748
317,1	4,395
317,6	4,367
318	10,052
318,5	8,367
319	9,767
319,4	13,967
319,9	18,081
320,3	13,967
320,8	13,567
321,3	14,51
321,7	16,71
322,2	13,995
322,6	10,538
323,1	9,767
323,6	7,652
324	6,995
324,5	3,738
324,9	2,681
325,4	1,281
325,9	4,11
326,3	4,281
326,8	7,967
327,2	5,538
327,7	10,595
328,2	11,024
328,6	12,738
329,1	5,795
329,5	5,367
330	2,738
330,5	8,51
330,9	4,71
331,4	8,338
331,8	8,567
332,3	15,767
332,8	13,881
333,2	15,338
333,7	12,795
334,1	12,938
334,6	5,881
335,1	-0,662
335,5	-2,005
336	-4,605
336,4	-4,119
336,9	4,967
337,4	5,795
337,8	9,052
338,3	15,338
338,7	14,938
339,2	18,081
339,7	18,51
340,1	6,538
340,6	7,31
341	6,51
341,5	6,081
342	4,71
342,4	-0,833
342,9	-1,348
343,3	1,795
343,8	3,538
344,2	2,967
344,7	7,881
345,2	4,481
345,6	9,052
346,1	11,595
346,5	11,367
347	6,681
347,5	6,31
347,9	5,081
348,4	9,795
348,8	10,795
349,3	6,281
349,8	8,281
350,2	14,424
350,7	16,538
351,1	14,367
351,6	15,195
352	15,738
352,5	21,338
353	28,995
353,4	29,481
353,9	38,652
354,3	46,881
354,8	56,624
355,3	78,995
355,7	94,967
356,2	114,052
356,6	136,138
357,1	159,91
357,5	189,595
358	218,052
358,5	243,424
358,9	282,538
359,4	321,681
359,8	367,624
360,3	425,224
360,8	479,51
361,2	547,11
361,7	622,395
362,1	704,024
362,6	798,11
363	890,738
363,5	985,738
364	1096,395
364,4	1208,71
364,9	1315,71
365,3	1422,281
365,8	1510,71
366,3	1609,281
366,7	1693,567
367,2	1767,395
367,6	1819,938
368,1	1865,452
368,5	1892,395
369	1914,367
369,5	1914,71
369,9	1896,424
370,4	1860,195
370,8	1818,738
371,3	1762,252
371,7	1701,195
372,2	1621,967
372,7	1544,024
373,1	1463,995
373,6	1379,167
374	1299,51
374,5	1215,538
374,9	1126,538
375,4	1048,252
375,9	970,052
376,3	892,824
376,8	822,281
377,2	753,195
377,7	693,738
378,2	638,995
378,6	591,024
379,1	539,395
379,5	500,567
380	468,167
380,4	426,252
380,9	389,91
381,4	358,11
381,8	330,195
382,3	308,91
382,7	286,195
383,2	261,338
383,6	246,967
384,1	233,652
384,6	222,567
385	205,052
385,5	192,967
385,9	177,281
386,4	164,224
386,8	156,652
387,3	139,424
387,7	128,138
388,2	120,11
388,7	109,081
389,1	104,595
389,6	99,052
390	92,11
390,5	92,71
390,9	88,652
391,4	83,767
391,9	78,967
392,3	74,224
392,8	66,224
393,2	60,252
393,7	56,11
394,1	46,538
394,6	43,481
395,1	39,452
395,5	34,967
396	43,024
396,4	42,852
396,9	40,595
397,3	47,424
397,8	49,767
398,2	50,652
398,7	50,624
399,2	47,424
399,6	45,938
400,1	44,767
400,5	36,195
401	31,738
401,4	26,252
401,9	27,71
402,4	29,767
402,8	27,91
403,3	29,938
403,7	31,738
404,2	36,538
404,6	43,167
405,1	40,681
405,5	33,481
406	33,967
406,5	30,081
406,9	33,195
407,4	30,481
407,8	27,824
408,3	33,281
408,7	34,995
409,2	39,252
409,6	47,167
410,1	45,824
410,6	49,938
411	50,767
411,5	48,881
411,9	51,338
412,4	49,938
412,8	50,195
413,3	53,852
413,7	53,852
414,2	54,681
414,7	57,452
415,1	63,024
415,6	67,567
416	66,738
416,5	66,424
416,9	63,51
417,4	67,71
417,8	76,052
418,3	78,681
418,8	77,852
419,2	78,567
419,7	82,738
420,1	89,71
420,6	90,938
421	85,624
421,5	87,424
421,9	85,481
422,4	87,452
422,8	85,138
423,3	82,281
423,8	81,024
424,2	78,538
424,7	76,31
425,1	79,91
425,6	83,452
426	84,395
426,5	88,281
426,9	91,167
427,4	93,995
427,9	85,795
428,3	84,767
428,8	78,567
429,2	80,31
429,7	75,967
430,1	76,081
430,6	75,138
431	78,052
431,5	80,995
431,9	80,538
432,4	76,281
432,8	79,167
433,3	79,281
433,8	83,195
434,2	88,167
434,7	88,395
435,1	94,367
435,6	102,224
436	102,395
436,5	105,967
436,9	98,681
437,4	97,852
437,8	98,881
438,3	100,424
438,8	97,967
439,2	101,967
439,7	106,51
440,1	116,738
440,6	125,795
441	125,367
441,5	130,852
441,9	139,538
442,4	144,081
442,8	143,481
443,3	149,824
443,7	154,138
444,2	171,652
444,7	179,31
445,1	184,881
445,6	193,452
446	204,338
446,5	204,567
446,9	204,595
447,4	205,567
447,8	211,281
448,3	221,052
448,7	229,31
449,2	237,452
449,6	254,052
450,1	262,281
450,6	276,024
451	285,138
451,5	294,967
451,9	306,281
452,4	319,081
452,8	327,938
453,3	348,652
453,7	352,881
454,2	370,681
454,6	384,624
455,1	390,91
455,5	397,081
456	412,995
456,4	423,538
456,9	444,424
457,3	453,424
457,8	459,595
458,3	480,567
458,7	499,795
459,2	514,138
459,6	524,252
460,1	542,138
460,5	555,624
461	579,938
461,4	591,795
461,9	608,195
462,3	624,452
462,8	645,195
463,2	656,167
463,7	674,452
464,1	690,11
464,6	712,367
465	728,452
465,5	748,395
466	769,138
466,4	789,452
466,9	812,224
467,3	830,052
467,8	850,31
468,2	874,652
468,7	893,967
469,1	917,738
469,6	939,224
470	959,881
470,5	979,51
470,9	995,967
471,4	1014,424
471,8	1033,595
472,3	1049,767
472,7	1068,995
473,2	1084,681
473,6	1105,224
474,1	1130,395
474,5	1154,138
475	1175,052
475,4	1196,481
475,9	1217,281
476,4	1241,567
476,8	1263,424
477,3	1278,938
477,7	1297,567
478,2	1321,31
478,6	1337,681
479,1	1351,195
479,5	1363,652
480	1381,71
480,4	1404,081
480,9	1418,91
481,3	1432,681
481,8	1454,795
482,2	1473,281
482,7	1493,995
483,1	1508,881
483,6	1522,738
484	1537,967
484,5	1555,481
484,9	1565,71
485,4	1586,938
485,8	1599,567
486,3	1615,252
486,7	1631,852
487,2	1645,852
487,6	1659,138
488,1	1668,824
488,5	1676,738
489	1695,91
489,4	1706,795
489,9	1709,995
490,4	1725,367
490,8	1734,795
491,3	1749,738
491,7	1761,51
492,2	1770,338
492,6	1786,31
493,1	1803,538
493,5	1809,967
494	1816,481
494,4	1829,424
494,9	1840,138
495,3	1854,195
495,8	1860,91
496,2	1864,995
496,7	1871,167
497,1	1881,51
497,6	1888,167
498	1895,738
498,5	1898,31
498,9	1900,31
499,4	1909,31
499,8	1920,681
500,3	1931,51
500,7	1934,281
501,2	1936,167
501,6	1935,567
502,1	1943,824
502,5	1951,081
503	1953,595
503,4	1954,595
503,9	1959,624
504,3	1967,824
504,8	1978,681
505,2	1987,852
505,7	1985,538
506,1	1994,424
506,6	1994,31
507	1998,567
507,5	2004,281
507,9	2002,995
508,4	1998,281
508,8	2010,195
509,3	2008,052
509,7	2018,767
510,2	2023,081
510,6	2022,881
511,1	2034,31
511,5	2044,195
512	2043,938
512,4	2052,624
512,9	2053,138
513,3	2060,224
513,8	2069,624
514,2	2067,681
514,7	2073,224
515,1	2084,452
515,6	2086,824
516	2091,367
516,5	2091,938
516,9	2093,11
517,4	2102,681
517,8	2108,31
518,3	2110,967
518,7	2115,081
519,2	2120,595
519,6	2131,481
520,1	2138,424
520,5	2140,424
521	2140,024
521,4	2146,738
521,9	2152,538
522,3	2157,881
522,8	2160,252
523,2	2165,281
523,7	2171,595
524,1	2182,081
524,6	2185,052
525	2191,281
525,5	2196,967
525,9	2210,338
526,4	2213,538
526,8	2220,424
527,3	2226,967
527,7	2235,481
528,2	2245,081
528,6	2248,595
529,1	2252,995
529,5	2266,31
530	2273,395
530,4	2278,738
530,9	2283,481
531,3	2285,024
531,8	2296,652
532,2	2296,51
532,6	2295,624
533,1	2304,195
533,5	2312,31
534	2321,795
534,4	2336,652
534,9	2348,252
535,3	2354,738
535,8	2369,652
536,2	2377,452
536,7	2383,767
537,1	2390,138
537,6	2384,367
538	2387,652
538,5	2394,567
538,9	2393,281
539,4	2400,624
539,8	2406,538
540,3	2412,767
540,7	2423,138
541,2	2427,224
541,6	2438,138
542,1	2450,395
542,5	2459,481
543	2471,567
543,4	2476,852
543,9	2492,767
544,3	2505,767
544,8	2515,395
545,2	2523,395
545,7	2530,738
546,1	2538,852
546,5	2552,338
547	2550,938
547,4	2554,995
547,9	2557,052
548,3	2565,052
548,8	2571,11
549,2	2571,252
549,7	2571,91
550,1	2586,91
550,6	2592,995
551	2600,567
551,5	2602,967
551,9	2603,167
552,4	2610,138
552,8	2616,195
553,3	2620,395
553,7	2623,452
554,2	2631,11
554,6	2643,167
555,1	2654,481
555,5	2661,424
555,9	2675,795
556,4	2679,395
556,8	2689,681
557,3	2700,624
557,7	2702,167
558,2	2702,538
558,6	2709,538
559,1	2709,595
559,5	2716,995
560	2718,738
560,4	2721,11
560,9	2725,795
561,3	2731,538
561,8	2736,281
562,2	2742,081
562,7	2745,367
563,1	2758,31
563,6	2760,31
564	2764,252
564,4	2771,567
564,9	2770,538
565,3	2772,852
565,8	2777,824
566,2	2774,995
566,7	2774,824
567,1	2777,31
567,6	2780,652
568	2788,795
568,5	2790,652
568,9	2790,481
569,4	2790,224
569,8	2801,624
570,3	2806,024
570,7	2798,652
571,1	2799,195
571,6	2805,852
572	2808,995
572,5	2813,195
572,9	2802,91
573,4	2806,824
573,8	2817,938
574,3	2817,395
574,7	2810,938
575,2	2804,11
575,6	2802,138
576,1	2811,938
576,5	2806,938
576,9	2795,738
577,4	2793,624
577,8	2792,338
578,3	2792,567
578,7	2791,224
579,2	2792,224
579,6	2788,052
580,1	2789,795
580,5	2791,71
581	2795,938
581,4	2796,452
581,9	2792,081
582,3	2776,252
582,7	2772,738
583,2	2771,481
583,6	2770,138
584,1	2767,852
584,5	2762,652
585	2765,71
585,4	2769,938
585,9	2772,11
586,3	2773,024
586,8	2766,024
587,2	2754,938
587,6	2758,052
588,1	2756,052
588,5	2749,338
589	2744,51
589,4	2730,195
589,9	2722,11
590,3	2716,424
590,8	2707,252
591,2	2698,538
591,7	2698,424
592,1	2695,081
592,5	2700,681
593	2699,538
593,4	2695,195
593,9	2689,795
594,3	2684,31
594,8	2678,71
595,2	2671,11
595,7	2663,51
596,1	2658,995
596,6	2659,567
597	2658,967
597,4	2654,252
597,9	2649,167
598,3	2650,681
598,8	2648,595
599,2	2646,567
599,7	2642,138
600,1	2637,481
600,6	2632,338
601	2628,595
601,4	2623,51
601,9	2618,024
602,3	2607,567
602,8	2598,938
603,2	2586,11
603,7	2581,195
604,1	2574,081
604,6	2564,395
605	2555,338
605,4	2552,51
605,9	2542,224
606,3	2533,052
606,8	2520,281
607,2	2511,11
607,7	2493,738
608,1	2489,824
608,6	2485,967
609	2486,052
609,4	2488,795
609,9	2484,91
610,3	2473,538
610,8	2472,881
611,2	2461,452
611,7	2446,967
612,1	2434,824
612,6	2423,367
613	2418,881
613,4	2411,967
613,9	2405,224
614,3	2394,052
614,8	2388,424
615,2	2376,881
615,7	2367,452
616,1	2356,481
616,6	2348,481
617	2340,624
617,4	2337,967
617,9	2332,824
618,3	2328,91
618,8	2324,767
619,2	2316,367
619,7	2307,338
620,1	2296,681
620,5	2282,681
621	2266,91
621,4	2257,852
621,9	2240,338
622,3	2229,138
622,8	2220,538
623,2	2211,338
623,6	2200,624
624,1	2189,938
624,5	2178,567
625	2176,767
625,4	2170,138
625,9	2163,624
626,3	2156,195
626,8	2147,138
627,2	2139,138
627,6	2124,081
628,1	2106,081
628,5	2095,938
629	2077,881
629,4	2063,681
629,9	2054,424
630,3	2040,51
630,7	2025,167
631,2	2017,852
631,6	2002,367
632,1	1995,081
632,5	1984,252
633	1976,795
633,4	1968,795
633,8	1964,995
634,3	1956,481
634,7	1948,995
635,2	1937,995
635,6	1928,138
636,1	1912,91
636,5	1900,224
636,9	1884,738
637,4	1870,852
637,8	1855,51
638,3	1845,252
638,7	1834,624
639,2	1821,51
639,6	1819,538
640	1813,052
640,5	1809,624
640,9	1804,824
641,4	1799,31
641,8	1791,51
642,2	1787,91
642,7	1776,738
643,1	1771,567
643,6	1757,481
644	1748,224
644,5	1741,281
644,9	1731,195
645,3	1719,681
645,8	1701,538
646,2	1695,452
646,7	1687,51
647,1	1674,767
647,6	1663,424
648	1654,881
648,4	1648,367
648,9	1653,395
649,3	1638,738
649,8	1632,167
650,2	1632,51
650,6	1621,652
651,1	1614,11
651,5	1608,11
652	1591,252
652,4	1584,395
652,9	1577,024
653,3	1563,767
653,7	1554,452
654,2	1545,338
654,6	1531,138
655,1	1526,767
655,5	1525,738
655,9	1513,338
656,4	1507,11
656,8	1502,224
657,3	1492,338
657,7	1489,195
658,2	1476,567
658,6	1462,91
659	1457,71
659,5	1442,224
659,9	1432,224
660,4	1424,91
660,8	1413,767
661,2	1407,052
661,7	1400,995
662,1	1390,938
662,6	1385,967
663	1379,567
663,4	1370,852
663,9	1358,11
664,3	1347,481
664,8	1330,71
665,2	1321,338
665,6	1307,624
666,1	1295,452
666,5	1291,624
667	1288,11
667,4	1279,395
667,9	1272,538
668,3	1264,024
668,7	1257,624
669,2	1256,424
669,6	1243,11
670,1	1235,481
670,5	1226,738
670,9	1220,024
671,4	1213,395
671,8	1211,852
672,3	1204,395
672,7	1195,424
673,1	1180,852
673,6	1175,395
674	1172,51
674,5	1160,252
674,9	1145,338
675,3	1132,624
675,8	1128,967
676,2	1127,138
676,7	1115,024
677,1	1103,91
677,5	1093,71
678	1090,567
678,4	1084,224
678,9	1074,481
679,3	1069,481
679,7	1062,538
680,2	1049,652
680,6	1049,31
681,1	1040,652
681,5	1034,567
681,9	1030,252
682,4	1024,624
682,8	1023,167
683,3	1024,481
683,7	1020,024
684,1	1015,224
684,6	1001,052
685	993,081
685,5	978,938
685,9	964,024
686,3	952,481
686,8	940,824
687,2	935,567
687,7	934,338
688,1	925,424
688,5	921,91
689	922,052
689,4	920,224
689,9	915,995
690,3	904,624
690,7	897,138
691,2	896,767
691,6	897,252
692	889,652
692,5	880,881
692,9	873,967
693,4	870,624
693,8	865,995
694,2	854,567
694,7	844,052
695,1	838,938
695,6	837,367
696	834,452
696,4	829,195
696,9	821,91
697,3	814,71
697,8	810,71
698,2	806,795
698,6	800,767
699,1	789,967
699,5	788,595
699,9	782,424
700,4	775,71
700,8	771,567
701,3	764,138
701,7	756,567
702,1	754,652
702,6	741,538
703	741,252
703,5	739,424
703,9	733,281
704,3	732,167
704,8	722,481
705,2	715,652
705,6	716,052
706,1	710,138
706,5	703,995
707	698,852
707,4	694,91
707,8	694,595
708,3	693,052
708,7	691,51
709,2	684,51
709,6	677,538
710	675,995
710,5	666,624
710,9	660,881
711,3	654,395
711,8	649,395
712,2	644,367
712,7	643,052
713,1	634,795
713,5	630,967
714	630,195
714,4	621,31
714,8	613,681
715,3	607,167
715,7	603,567
716,2	596,624
716,6	593,138
717	582,938
717,5	579,681
717,9	579,338
718,3	575,624
718,8	572,024
719,2	566,881
719,7	561,767
720,1	563,824
720,5	565,738
721	557,367
721,4	553,167
721,8	551,938
722,3	544,11
722,7	544,11
723,2	531,624
723,6	522,452
724	516,281
724,5	512,224
724,9	504,567
725,3	504,681
725,8	497,624
726,2	495,424
726,7	491,481
727,1	490,338
727,5	490,452
728	484,452
728,4	486,538
728,8	482,795
729,3	481,595
729,7	477,91
730,1	472,395
730,6	470,595
731	466,395
731,5	457,367
731,9	450,11
732,3	449,824
732,8	450,567
733,2	451,738
733,6	445,852
734,1	446,51
734,5	444,595
734,9	448,481
735,4	443,91
735,8	438,024
736,3	428,91
736,7	423,852
737,1	421,881
737,6	417,481
738	412,681
738,4	409,281
738,9	412,052
739,3	411,081
739,7	412,967
740,2	404,167
740,6	408,395
741,1	406,767
741,5	401,995
741,9	397,91
742,4	400,51
742,8	397,71
743,2	403,338
743,7	391,481
744,1	386,31
744,5	386,51
745	381,395
745,4	373,138
745,8	367,31
746,3	359,71
746,7	362,11
747,2	360,338
747,6	360,167
748	361,938
748,5	364,31
748,9	361,138
749,3	363,052
749,8	360,024
750,2	359,11
750,6	351,595
751,1	346,995
751,5	341,824
751,9	342,31
752,4	335,71
752,8	334,31
753,3	331,652
753,7	333,081
754,1	330,31
754,6	325,052
755	320,024
755,4	319,852
755,9	319,995
756,3	315,11
756,7	311,51
757,2	310,91
757,6	310,338
758	312,652
758,5	308,224
758,9	302,795
759,3	301,567
759,8	301,281
760,2	299,938
760,6	298,367
761,1	294,167
761,5	293,51
761,9	291,938
762,4	288,11
762,8	285,167
763,3	281,195
763,7	281,395
764,1	280,795
764,6	280,081
765	278,681
765,4	278,767
765,9	277,338
766,3	277,395
766,7	271,852
767,2	266,281
767,6	269,624
768	268,367
768,5	266,995
768,9	265,795
769,3	261,91
769,8	258,595
770,2	257,71
770,6	253,824
771,1	251,481
771,5	249,081
771,9	247,281
772,4	247,624
772,8	251,452
773,2	251,595
773,7	244,738
774,1	241,481
774,5	236,995
775	235,767
775,4	235,138
775,8	230,138
776,3	225,938
776,7	227,081
777,1	228,281
777,6	234,881
778	237,91
778,4	232,481
778,9	234,652
779,3	232,11
779,7	230,138
780,2	228,252
780,6	225,081
781	217,852
781,5	213,624
781,9	211,624
782,3	209,595
782,8	209,024
783,2	204,538
783,6	204,224
784,1	202,538
784,5	200,567
784,9	196,624
785,4	206,652
785,8	205,081
786,2	208,138
786,7	204,395
787,1	204,138
787,5	208,367
788	206,967
788,4	199,681
788,8	196,681
789,3	191,281
789,7	193,91
790,1	191,938
790,6	190,824
791	189,71
791,4	187,91
791,9	185,395
792,3	180,91
792,7	176,11
793,2	173,281
793,6	170,51
794	173,195
794,5	169,252
794,9	171,91
795,3	175,652
795,8	172,024
796,2	175,367
796,6	174,052
797,1	167,681
797,5	164,138
797,9	159,11
798,4	152,481
798,8	153,652
799,2	147,252
799,7	146,767
800,1	147,852
800,5	151,51
801	153,624
801,4	155,395
801,8	150,281
802,2	150,652
802,7	145,738
803,1	144,138
803,5	142,11
804	138,081
804,4	138,51
804,8	141,881
805,3	143,167
805,7	143,938
806,1	142,51
806,6	145,738
807	145,738
807,4	140,11
807,9	133,881
808,3	127,824
808,7	128,224
809,2	132,367
809,6	129,824
810	128,91
810,4	135,51
810,9	139,167
811,3	144,338
811,7	143,31
812,2	144,938
812,6	141,252
813	144,138
813,5	140,967
813,9	136,252
814,3	131,31
814,8	130,824
815,2	121,767
815,6	120,338
816,1	116,624
816,5	114,452
816,9	114,224
817,3	113,538
817,8	115,252
818,2	114,224
818,6	114,224
819,1	113,624
819,5	112,995
819,9	116,11
820,4	112,31
820,8	103,767
821,2	101,281
821,7	101,481
822,1	99,738
822,5	100,881
822,9	98,224
823,4	98,995
823,8	105,395
824,2	109,595
824,7	105,681
825,1	104,281
825,5	101,767
826	98,224
826,4	96,652
826,8	92,024
827,3	92,338
827,7	88,652
828,1	89,767
828,5	88,481
829	86,995
829,4	87,881
829,8	85,738
830,3	83,481
830,7	88,452
831,1	89,538
831,6	91,51
832	94,024
832,4	97,138
832,8	100,824
833,3	95,681
833,7	90,71
834,1	85,967
834,6	87,024
835	84,967
835,4	84,338
835,8	77,881
836,3	82,224
836,7	84,938
837,1	86,252
837,6	82,624
838	81,052
838,4	77,852
838,9	79,367
839,3	73,138
839,7	72,738
840,1	70,31
840,6	67,195
841	70,167
841,4	66,11
841,9	67,852
842,3	71,138
842,7	73,481
843,1	72,938
843,6	77,767
844	77,024
844,4	83,881
844,9	83,71
845,3	85,224
845,7	79,652
846,2	78,024
846,6	71,995
847	73,281
847,4	72,595
847,9	71,91
848,3	71,138
848,7	71,367
849,2	70,481
849,6	68,338
850	70,681
850,4	64,795
850,9	65,595
851,3	62,967
851,7	65,91
852,2	68,91
852,6	74,281
853	69,738
853,4	75,367
853,9	69,767
854,3	70,71
854,7	70,138
855,2	70,424
855,6	67,767
856	65,138
856,4	60,167
856,9	60,195
857,3	58,538
857,7	54,595
858,2	55,081
858,6	54,081
859	57,281
859,4	58,71
859,9	58,567
860,3	56,167
860,7	57,967
861,1	56,224
861,6	56,795
862	55,938
862,4	52,51
862,9	57,31
863,3	58,452
863,7	56,995
864,1	56,395
864,6	55,538
865	53,652
865,4	52,967
865,9	51,967
866,3	46,71
866,7	44,795
867,1	38,395
867,6	40,338
868	37,224
868,4	38,51
868,8	37,738
869,3	44,481
869,7	49,995
870,1	52,538
870,6	47,595
871	-22,576
871,4	-21,062
871,8	-27,233
872,3	-26,319
872,7	-30,176
873,1	-29,319
873,5	-26,89
874	41,938
874,4	37,91
874,8	40,195
875,3	38,281
875,7	36,681
876,1	37,224
876,5	37,195
877	39,024
877,4	37,767
877,8	38,31
878,2	41,224
878,7	45,338
879,1	43,51
879,5	43,11
879,9	44,538
880,4	49,367
880,8	49,424
881,2	42,567
881,7	34,395
882,1	33,052
882,5	30,71
882,9	29,395
883,4	25,424
883,8	27,995
884,2	30,167
884,6	32,424
885,1	34,081
885,5	35,481
885,9	37,567
886,3	39,167
886,8	33,367
887,2	31,881
887,6	31,31
888	32,424
888,5	31,852
888,9	24,852
889,3	20,767
889,8	22,481
890,2	22,538
890,6	21,967
891	22,738
891,5	22,824
891,9	27,852
892,3	30,395
892,7	33,052
893,2	33,624
893,6	36,681
894	34,567
894,4	31,967
894,9	29,824
895,3	28,167
895,7	24,91
896,1	24,481
896,6	24,195
897	27,167
897,4	31,71
897,8	31,767
898,3	40,281
898,7	39,91
899,1	40,167
899,5	34,852
900	26,967
900,4	25,652
900,8	24,424
901,2	15,995
901,7	16,538
902,1	17,995
902,5	25,481
902,9	28,738
903,4	28,852
903,8	29,51
904,2	31,195
904,6	29,538
905,1	29,538
905,5	24,224
905,9	27,338
906,3	27,967
906,8	26,31
907,2	26,652
907,6	29,452
908	28,881
908,5	27,195
908,9	24,852
909,3	21,481
909,7	23,938
910,2	20,538
910,6	22,852
911	15,881
911,4	23,795
911,9	21,281
912,3	19,738
912,7	22,424
913,1	22,824
913,6	16,681
914	24,71
914,4	17,567
914,8	19,481
915,3	21,195
915,7	16,481
916,1	19,681
916,5	20,138
916,9	19,481
917,4	18,852
917,8	20,481
918,2	17,138
918,6	15,452
919,1	15,481
919,5	19,252
919,9	17,795
920,3	18,395
920,8	18,767
921,2	20,281
921,6	19,881
922	17,538
922,5	12,624
922,9	13,767
923,3	12,281
923,7	12,395
924,2	12,71
924,6	13,138
925	13,481
925,4	16,71
925,8	15,938
926,3	19,138
926,7	13,138
927,1	13,767
927,5	14,881
928	11,824
928,4	9,681
928,8	10,252
929,2	6,395
929,7	9,738
930,1	8,852
930,5	9,738
930,9	15,452
931,3	17,395
931,8	19,738
932,2	23,681
932,6	22,481
933	18,624
933,5	17,51
933,9	16,938
934,3	15,395
934,7	9,081
935,2	1,824
935,6	1,167
936	8,681
936,4	10,281
936,8	7,624
937,3	7,367
937,7	9,595
938,1	20,11
938,5	17,652
939	19,652
939,4	23,081
939,8	25,367
940,2	27,138
940,6	27,824
941,1	25,595
941,5	31,11
941,9	22,767
942,3	19,51
942,8	18,624
943,2	18,881
943,6	13,881
944	11,081
944,4	10,481
944,9	13,738
945,3	9,052
945,7	5,024
946,1	1,71
946,6	4,852
947	3,224
947,4	7,824
947,8	7,452
948,2	9,31
948,7	12,167
949,1	12,738
949,5	17,51
949,9	20,652
950,3	16,424
950,8	18,11
951,2	17,281
951,6	11,481
952	13,852
952,5	5,738
952,9	6,281
953,3	3,052
953,7	2,395
954,1	8,71
954,6	14,252
955	15,624
955,4	18,395
955,8	19,281
956,2	20,881
956,7	20,852
957,1	14,024
957,5	15,024
957,9	13,624
958,3	15,11
958,8	13,167
959,2	14,338
959,6	14,995
960	13,967
960,5	18,824
960,9	20,224
961,3	16,338
961,7	12,681
962,1	13,538
962,6	11,195
963	13,195
963,4	5,51
963,8	3,91
964,2	11,024
964,7	14,681
965,1	13,738
965,5	15,452
965,9	16,681
966,3	23,081
966,8	21,052
967,2	18,967
967,6	17,538
968	18,224
968,4	19,995
968,9	22,595
969,3	20,481
969,7	18,452
970,1	17,052
970,5	15,852
971	14,738
971,4	9,367
971,8	6,224
972,2	6,252
972,6	9,281
973,1	9,138
973,5	8,681
973,9	9,024
974,3	12,395
974,7	17,681
975,2	16,71
975,6	13,91
976	15,167
976,4	14,538
976,8	13,481
977,3	13,395
977,7	8,567
978,1	8,91
978,5	9,195
978,9	4,51
979,4	3,538
979,8	3,995
980,2	3,281
980,6	3,795
981	3,567
981,5	5,938
981,9	7,51
982,3	12,081
982,7	12,938
983,1	9,081
983,6	12,567
984	9,681
984,4	10,967
984,8	11,595
985,2	12,11
985,6	7,452
986,1	11,081
986,5	10,31
986,9	8,395
987,3	12,624
987,7	13,681
988,2	11,081
988,6	15,481
989	10,824
989,4	11,595
989,8	14,51
990,3	9,995
990,7	8,367
991,1	10,024
991,5	12,538
991,9	17,767
992,3	14,881
992,8	17,881
993,2	15,795
993,6	16,452
994	17,167
994,4	15,024
994,9	16,252
995,3	17,424
995,7	11,852
996,1	8,938
996,5	8,995
996,9	5,195
997,4	3,538
997,8	-2,805
998,2	-6,405
998,6	-13,748
999	-12,89
999,5	-15,948
999,9	-12,633
1000,3	-11,69
1000,7	-8,205
1001,1	-7,519
1001,5	2,852
1002	10,567
1002,4	16,338
1002,8	15,367
1003,2	17,995
1003,6	21,624
1004	24,11
1004,5	19,252
1004,9	14,395
1005,3	7,224
1005,7	6,652
1006,1	2,024
1006,6	-1,69
1007	-2,69
1007,4	0,595
1007,8	0,081
1008,2	-0,376
1008,6	1,91
1009,1	0,395
1009,5	3,795
1009,9	3,795
1010,3	5,538
1010,7	6,538
1011,1	12,424
1011,6	12,567
1012	16,767
1012,4	14,624
1012,8	12,938
1013,2	18,081
1013,6	15,052
1014,1	14,395
1014,5	14,595
1014,9	14,195
1015,3	9,881
1015,7	10,624
1016,1	6,024
1016,6	5,224
1017	7,195
1017,4	7,538
1017,8	4,538
1018,2	9,51
1018,6	4,824
1019,1	2,367
1019,5	8,224
1019,9	4,081
1020,3	0,481
1020,7	3,338
1021,1	1,138
1021,6	5,281
1022	6,795
1022,4	3,595
1022,8	7,767
1023,2	11,367
1023,6	8,852
1024,1	13,767
1024,5	14,052
1024,9	8,538
1025,3	7,024
1025,7	4,795
1026,1	5,224
1026,6	8,567
1027	5,167
1027,4	10,51
1027,8	14,338
1028,2	15,424
1028,6	17,395
1029	16,395
1029,5	17,71
1029,9	14,167
1030,3	8,424
1030,7	10,824
1031,1	14,138
1031,5	5,938
1032	3,195
1032,4	0,824
1032,8	7,252
1033,2	8,71
1033,6	6,395
1034	3,51
1034,4	8,195
1034,9	12,31
1035,3	8,138
1035,7	8,538
1036,1	5,567
1036,5	0,052
1036,9	0,481
1037,4	6,481
1037,8	-1,062
1038,2	4,138
1038,6	0,281
1039	7,224
1039,4	19,052
1039,8	15,567
1040,3	12,795
1040,7	21,224
1041,1	21,767
1041,5	23,138
1041,9	16,938
1042,3	11,567
1042,7	18,367
1043,2	16,767
1043,6	8,024
1044	3,424
1044,4	2,081
1044,8	3,852
1045,2	4,795
1045,6	3,652
1046,1	3,138
1046,5	8,681
1046,9	10,881
1047,3	8,11
1047,7	5,51
1048,1	5,31
1048,5	1,824
1049	4,995
1049,4	8,51
1049,8	5,11
1050,2	10,281
1050,6	15,138
1051	11,167
1051,4	11,281
1051,9	11,338
1052,3	15,624
1052,7	14,567
1053,1	12,938
1053,5	15,195
1053,9	19,081
1054,3	23,195
1054,8	24,538
1055,2	19,31
1055,6	22,167
1056	21,31
1056,4	18,852
1056,8	20,738
1057,2	16,252
1057,6	9,967
1058,1	5,538
1058,5	4,11
1058,9	6,424
1059,3	5,081
1059,7	3,195
1060,1	3,395
1060,5	3,024
1061	3,31
1061,4	7,595
1061,8	7,052
1062,2	9,795
1062,6	8,738
1063	10,138
1063,4	13,967
1063,8	14,652
1064,3	8,395
1064,7	4,995
1065,1	-2,119
1065,5	-2,29
1065,9	-2,605
1066,3	-4,976
1066,7	-5,776
1067,1	-2,862
1067,6	3,338
1068	3,538
1068,4	4,738
1068,8	7,338
1069,2	9,71
1069,6	9,024
1070	13,367
1070,4	7,281
1070,9	4,967
1071,3	3,052
1071,7	0,081
1072,1	-3,719
1072,5	-6,062
1072,9	-9,29
1073,3	-3,519
1073,7	1,967
1074,2	3,11
1074,6	4,767
1075	7,51
1075,4	8,595
1075,8	13,824
1076,2	9,338
1076,6	11,081
1077	13,024
1077,5	15,967
1077,9	14,11
1078,3	12,31
1078,7	7,738
1079,1	6,281
1079,5	4,252
1079,9	3,652
1080,3	5,681
1080,7	9,31
1081,2	18,624
1081,6	16,938
1082	16,195
1082,4	22,081
1082,8	20,452
1083,2	14,795
1083,6	14,424
1084	9,481
1084,5	13,852
1084,9	14,138
1085,3	3,281
1085,7	4,395
1086,1	5,424
1086,5	4,938
1086,9	8,395
1087,3	4,824
1087,7	6,967
1088,2	12,052
1088,6	9,624
1089	6,624
1089,4	4,195
1089,8	-0,633
1090,2	-2,605
1090,6	-0,89
1091	3,252
1091,4	7,481
1091,9	7,681
1092,3	7,624
1092,7	8,852
1093,1	14,424
1093,5	14,424
1093,9	8,938
1094,3	9,51
1094,7	12,11
1095,1	12,91
1095,5	13,51
1096	10,481
1096,4	8,481
1096,8	5,51
1097,2	1,052
1097,6	2,767
1098	2,995
1098,4	3,681
1098,8	6,71
1099,2	13,252
1099,6	17,11
1100,1	16,224
1100,5	14,281
1100,9	14,681
1101,3	15,652
1101,7	12,967
1102,1	7,31
1102,5	9,967
1102,9	12,281
1103,3	14,252
1103,7	14,338
1104,2	11,281
1104,6	11,852
1105	9,138
1105,4	8,338
1105,8	6,852
1106,2	3,024
1106,6	1,91
1107	2,081
1107,4	0,433
1107,8	3,207
1108,3	0,067
