Data from Subt2_218.txt Node
Date: Sat Aug 26 18:49:28 MSK 2023
User: vat
Spectrometer: MAYP114033
Trigger mode: 0
Integration Time (sec): 1,000000E0
Scans to average: 5
Electric dark correction enabled: true
Nonlinearity correction enabled: false
Boxcar width: 3
XAxis mode: Wavelengths
Number of Pixels in Spectrum: 2068
>>>>>Begin Spectral Data<<<<<
199,4	-0,383
199,9	2,767
200,4	4
200,8	5,995
201,3	4,881
201,8	6,224
202,2	5,338
202,7	9,052
203,2	6,252
203,6	2,824
204,1	-1,062
204,6	-2,09
205	-2,862
205,5	-1,119
206	-2,09
206,4	0,195
206,9	1,652
207,4	3,138
207,8	3,967
208,3	5,367
208,8	3,567
209,2	4,995
209,7	4,824
210,2	4,91
210,6	3,795
211,1	7,881
211,5	2,538
212	2,224
212,5	-2,29
212,9	-3,919
213,4	-1,119
213,9	0,824
214,3	1,595
214,8	6,681
215,3	7,767
215,7	9,595
216,2	14,052
216,7	12,252
217,1	13,567
217,6	13,852
218,1	11,281
218,5	11,31
219	9,71
219,5	11,11
219,9	9,052
220,4	10,91
220,9	8,252
221,3	7,881
221,8	7,595
222,3	8,338
222,7	3,91
223,2	4,624
223,6	-0,062
224,1	-3,348
224,6	0,367
225	-0,89
225,5	-3,033
226	-5,005
226,4	-2,433
226,9	-1,205
227,4	-1,376
227,8	-5,176
228,3	-1,662
228,8	1,824
229,2	3,852
229,7	2,024
230,2	1,652
230,6	5,738
231,1	11,681
231,5	10,567
232	7,681
232,5	3,795
232,9	3,624
233,4	5,395
233,9	2,31
234,3	-4,776
234,8	-4,433
235,3	-5,605
235,7	-2,833
236,2	-1,319
236,7	-0,862
237,1	5,052
237,6	7,567
238,1	6,252
238,5	6,852
239	7,624
239,4	8,51
239,9	5,11
240,4	2,967
240,8	5,481
241,3	-0,776
241,8	1,424
242,2	-0,348
242,7	-1,576
243,2	1,31
243,6	1,31
244,1	0,881
244,6	8,595
245	6,767
245,5	9,881
245,9	7,31
246,4	7,224
246,9	6,481
247,3	5,967
247,8	8,167
248,3	14,138
248,7	12,795
249,2	15,681
249,7	15,738
250,1	16,538
250,6	14,967
251	16,424
251,5	11,91
252	9,367
252,4	8,795
252,9	4,824
253,4	1,795
253,8	-0,348
254,3	-2,348
254,8	-2,719
255,2	-6,29
255,7	-9,205
256,1	-5,49
256,6	-5,576
257,1	-1,776
257,5	-8,033
258	-10,033
258,5	-5,005
258,9	-1,348
259,4	-2,262
259,9	1,567
260,3	0,567
260,8	0,338
261,2	1,624
261,7	3,51
262,2	1,852
262,6	-3,348
263,1	-3,605
263,6	-2,776
264	4,967
264,5	8,052
264,9	4,252
265,4	5,481
265,9	5,995
266,3	3,967
266,8	7,567
267,3	0,224
267,7	-1,062
268,2	0,195
268,7	3,481
269,1	9,738
269,6	8,567
270	6,052
270,5	6,195
271	8,052
271,4	9,595
271,9	3,91
272,4	5,91
272,8	7,481
273,3	3,281
273,7	4,652
274,2	5,252
274,7	3,052
275,1	5,71
275,6	1,738
276,1	-1,548
276,5	7,824
277	7,167
277,4	4,052
277,9	8,224
278,4	7,195
278,8	8,024
279,3	12,624
279,8	7,624
280,2	9,252
280,7	11,624
281,1	3,938
281,6	0,052
282,1	0,167
282,5	-0,833
283	-0,89
283,4	-2,405
283,9	-1,605
284,4	6,31
284,8	10,538
285,3	7,252
285,8	7,052
286,2	6,11
286,7	9,481
287,1	5,652
287,6	2,31
288,1	1,91
288,5	9,081
289	6,081
289,5	6,967
289,9	3,995
290,4	8,681
290,8	11,024
291,3	11,51
291,8	9,624
292,2	13,081
292,7	14,538
293,1	13,224
293,6	11,452
294,1	9,681
294,5	9,767
295	7,595
295,5	5,195
295,9	1,91
296,4	3,681
296,8	2,31
297,3	3,538
297,8	-0,633
298,2	-3,262
298,7	0,481
299,1	1,624
299,6	-4,119
300,1	-0,005
300,5	-0,719
301	4,795
301,5	9,824
301,9	6,852
302,4	2,995
302,8	8,595
303,3	2,024
303,8	-1,862
304,2	-6,119
304,7	-9,376
305,1	-12,748
305,6	-8,49
306,1	-1,776
306,5	1,452
307	9,595
307,4	14,852
307,9	15,91
308,4	17,31
308,8	12,824
309,3	7,681
309,8	6,395
310,2	5,738
310,7	1,767
311,1	1,167
311,6	2,51
312,1	5,91
312,5	8,938
313	10,367
313,4	6,395
313,9	10,938
314,4	9,795
314,8	8,252
315,3	5,31
315,7	-3,976
316,2	-7,148
316,7	-5,69
317,1	-4,948
317,6	-5,719
318	-0,005
318,5	0,995
319	10,338
319,4	13,795
319,9	17,081
320,3	13,51
320,8	16,481
321,3	15,91
321,7	17,738
322,2	12,738
322,6	15,938
323,1	8,738
323,6	9,71
324	7,338
324,5	2,624
324,9	5,224
325,4	7,738
325,9	6,595
326,3	7,167
326,8	4,995
327,2	3,11
327,7	4,224
328,2	-0,176
328,6	2,767
329,1	-0,948
329,5	-1,09
330	-0,205
330,5	5,852
330,9	9,11
331,4	8,395
331,8	4,795
332,3	8,452
332,8	12,51
333,2	9,395
333,7	5,995
334,1	2,195
334,6	2,995
335,1	0,824
335,5	-2,233
336	-2,49
336,4	0,624
336,9	5,31
337,4	10,938
337,8	15,738
338,3	18,91
338,7	19,31
339,2	16,852
339,7	24,11
340,1	20,91
340,6	20,71
341	15,624
341,5	13,767
342	10,024
342,4	10,167
342,9	1,681
343,3	0,481
343,8	-5,319
344,2	-4,205
344,7	-1,148
345,2	-1,548
345,6	-3,233
346,1	0,052
346,5	1,281
347	2,367
347,5	0,281
347,9	2,852
348,4	7,738
348,8	11,738
349,3	7,395
349,8	9,195
350,2	17,595
350,7	21,195
351,1	18,881
351,6	20,367
352	23,452
352,5	30,91
353	39,881
353,4	43,424
353,9	59,195
354,3	73,167
354,8	83,167
355,3	100,938
355,7	121,967
356,2	143,452
356,6	171,538
357,1	196,538
357,5	233,852
358	280,424
358,5	325,824
358,9	380,91
359,4	435,367
359,8	501,167
360,3	581,167
360,8	658,795
361,2	750,681
361,7	856,31
362,1	969,824
362,6	1099,767
363	1231,024
363,5	1368,452
364	1521,652
364,4	1675,795
364,9	1832,567
365,3	1982,681
365,8	2125,11
366,3	2260,338
366,7	2385,052
367,2	2492,767
367,6	2579,11
368,1	2648,652
368,5	2689,652
369	2712,195
369,5	2719,138
369,9	2700,567
370,4	2661,681
370,8	2603,881
371,3	2519,652
371,7	2438,395
372,2	2333,881
372,7	2223,052
373,1	2105,51
373,6	1979,081
374	1860,052
374,5	1739,452
374,9	1620,281
375,4	1506,681
375,9	1390,195
376,3	1281,31
376,8	1182,681
377,2	1092,767
377,7	1002,424
378,2	914,052
378,6	837,024
379,1	769,567
379,5	708,11
380	649,052
380,4	587,024
380,9	538,767
381,4	497,852
381,8	461,338
382,3	429,881
382,7	396,824
383,2	371,71
383,6	345,881
384,1	325,881
384,6	304,51
385	282,452
385,5	257,424
385,9	238,567
386,4	216,681
386,8	207,652
387,3	188,252
387,7	173,367
388,2	164,424
388,7	154,338
389,1	141,624
389,6	133,767
390	121,881
390,5	118,11
390,9	110,195
391,4	98,51
391,9	89,224
392,3	85,795
392,8	79,91
393,2	71,224
393,7	63,681
394,1	58,167
394,6	56,252
395,1	53,852
395,5	49,595
396	49,71
396,4	46,424
396,9	45,51
397,3	44,481
397,8	47,567
398,2	45,11
398,7	46,11
399,2	42,91
399,6	44,567
400,1	43,31
400,5	42,824
401	37,538
401,4	34,995
401,9	35,024
402,4	34,681
402,8	27,852
403,3	29,71
403,7	25,51
404,2	28,167
404,6	32,795
405,1	28,424
405,5	28,681
406	31,052
406,5	29,195
406,9	31,938
407,4	26,11
407,8	26,195
408,3	28,881
408,7	29,081
409,2	33,167
409,6	35,881
410,1	38,481
410,6	43,881
411	45,652
411,5	47,224
411,9	48,738
412,4	50,881
412,8	52,167
413,3	54,024
413,7	58,71
414,2	58,624
414,7	65,852
415,1	74,252
415,6	73,71
416	73,881
416,5	76,452
416,9	79,024
417,4	82,481
417,8	88,51
418,3	87,938
418,8	98,138
419,2	104,995
419,7	105,338
420,1	108,024
420,6	114,052
421	109,824
421,5	116,424
421,9	113,31
422,4	114,195
422,8	114,31
423,3	111,995
423,8	112,652
424,2	115,938
424,7	112,71
425,1	115,281
425,6	114,967
426	123,224
426,5	124,31
426,9	127,224
427,4	121,195
427,9	123,938
428,3	125,652
428,8	129,11
429,2	125,881
429,7	128,51
430,1	131,424
430,6	137,652
431	134,881
431,5	140,538
431,9	139,024
432,4	147,195
432,8	152,138
433,3	153,938
433,8	160,881
434,2	169,681
434,7	170,681
435,1	179,395
435,6	182,424
436	187,795
436,5	192,052
436,9	192,881
437,4	194,938
437,8	202,938
438,3	211,481
438,8	218,452
439,2	227,995
439,7	237,052
440,1	247,91
440,6	262,281
441	267,624
441,5	276,481
441,9	290,938
442,4	298,51
442,8	310,567
443,3	326,452
443,7	337,881
444,2	357,195
444,7	369,795
445,1	380,738
445,6	395,452
446	407,31
446,5	415,052
446,9	421,452
447,4	430,767
447,8	446,995
448,3	462,852
448,7	475,595
449,2	492,538
449,6	518,824
450,1	539,395
450,6	558,252
451	579,395
451,5	595,138
451,9	620,51
452,4	641,081
452,8	652,195
453,3	675,567
453,7	696,595
454,2	713,11
454,6	737,11
455,1	755,51
455,5	774,281
456	801,51
456,4	821,767
456,9	846,852
457,3	867,795
457,8	882,31
458,3	909,71
458,7	934,652
459,2	956,567
459,6	983,424
460,1	1008,424
460,5	1034,681
461	1069,71
461,4	1086,081
461,9	1111,681
462,3	1142,452
462,8	1167,51
463,2	1191,767
463,7	1220,995
464,1	1247,338
464,6	1283,367
465	1312,51
465,5	1338,424
466	1368,252
466,4	1395,995
466,9	1422,167
467,3	1447,252
467,8	1470,938
468,2	1498,167
468,7	1522,681
469,1	1545,938
469,6	1573,567
470	1597,767
470,5	1626,452
470,9	1653,195
471,4	1676,852
471,8	1701,652
472,3	1728,224
472,7	1754,824
473,2	1777,252
473,6	1793,567
474,1	1819,91
474,5	1843,824
475	1866,767
475,4	1888,424
475,9	1907,538
476,4	1934,938
476,8	1960,11
477,3	1978,024
477,7	2002,624
478,2	2019,995
478,6	2036,195
479,1	2051,052
479,5	2067,938
480	2082,024
480,4	2100,938
480,9	2111,367
481,3	2126,167
481,8	2144,967
482,2	2156,567
482,7	2167,567
483,1	2188,167
483,6	2194,367
484	2206,024
484,5	2224,452
484,9	2232,652
485,4	2248,71
485,8	2254,452
486,3	2259,71
486,7	2269,538
487,2	2272,424
487,6	2271,795
488,1	2273,31
488,5	2271,052
489	2280,052
489,4	2279,424
489,9	2275,824
490,4	2281,281
490,8	2279,91
491,3	2280,681
491,7	2278,481
492,2	2274,967
492,6	2276,852
493,1	2271,71
493,5	2261,338
494	2247,795
494,4	2244,424
494,9	2242,11
495,3	2235,452
495,8	2224,395
496,2	2222,195
496,7	2207,567
497,1	2207,138
497,6	2199,881
498	2187,481
498,5	2177,338
498,9	2167,452
499,4	2153,767
499,8	2156,624
500,3	2149,024
500,7	2129,424
501,2	2115,367
501,6	2095,738
502,1	2077,881
502,5	2064,51
503	2050,652
503,4	2032,624
503,9	2023,51
504,3	2011,881
504,8	1999,424
505,2	1986,91
505,7	1970,424
506,1	1954,252
506,6	1933,681
507	1910,881
507,5	1896,538
507,9	1881,71
508,4	1863,252
508,8	1851,138
509,3	1829,081
509,7	1816,824
510,2	1805,052
510,6	1783,995
511,1	1762,31
511,5	1749,71
512	1730,252
512,4	1711,767
512,9	1692,11
513,3	1672,367
513,8	1652,452
514,2	1639,824
514,7	1618,51
515,1	1598,995
515,6	1579,024
516	1555,652
516,5	1542,252
516,9	1526,624
517,4	1508,481
517,8	1492,281
518,3	1476,138
518,7	1463,681
519,2	1450,738
519,6	1426,538
520,1	1412,024
520,5	1397,367
521	1376,11
521,4	1361,395
521,9	1341,31
522,3	1325,824
522,8	1313,252
523,2	1291,795
523,7	1276,224
524,1	1268,11
524,6	1248,652
525	1237,252
525,5	1222,024
525,9	1210,252
526,4	1195,452
526,8	1179,452
527,3	1157,367
527,7	1147,252
528,2	1131,71
528,6	1112,738
529,1	1094,967
529,5	1086,567
530	1071,71
530,4	1061,881
530,9	1048,367
531,3	1034,767
531,8	1030,167
532,2	1022,538
532,6	1010,91
533,1	993,595
533,5	985,452
534	971,652
534,4	960,252
534,9	946,138
535,3	931,452
535,8	917,138
536,2	912,71
536,7	897,538
537,1	884,824
537,6	874,252
538	865,852
538,5	861,424
538,9	851,281
539,4	844,538
539,8	837,395
540,3	828,738
540,7	821,052
541,2	810,71
541,6	796,595
542,1	792,11
542,5	784,167
543	772,424
543,4	761,995
543,9	757,624
544,3	752,652
544,8	740,138
545,2	726,852
545,7	715,338
546,1	709,367
546,5	707,167
547	689,938
547,4	682,938
547,9	677,91
548,3	674,252
548,8	669,024
549,2	662,852
549,7	652,738
550,1	655,481
550,6	648,167
551	645,795
551,5	639,681
551,9	629,824
552,4	622,395
552,8	619,567
553,3	609,11
553,7	600,11
554,2	593,624
554,6	586,652
555,1	586,91
555,5	581,795
555,9	576,995
556,4	569,281
556,8	567,338
557,3	561,967
557,7	560,767
558,2	549,767
558,6	547,052
559,1	536,681
559,5	536,824
560	532,767
560,4	528,681
560,9	522,224
561,3	521,195
561,8	515,852
562,2	518,31
562,7	512,51
563,1	512,081
563,6	506,567
564	503,681
564,4	497,367
564,9	492,281
565,3	491,281
565,8	487,824
566,2	476,995
566,7	476,424
567,1	476,138
567,6	476,052
568	473,624
568,5	465,567
568,9	461,138
569,4	460,738
569,8	458,795
570,3	451,481
570,7	439,767
571,1	438,281
571,6	440,052
572	440,567
572,5	438,938
572,9	429,995
573,4	425,224
573,8	432,938
574,3	426,567
574,7	419,938
575,2	414,31
575,6	408,224
576,1	411,795
576,5	416,024
576,9	406,281
577,4	402,91
577,8	397,967
578,3	397,652
578,7	398,824
579,2	394,795
579,6	383,338
580,1	385,881
580,5	388,938
581	388,052
581,4	382,938
581,9	377,567
582,3	374,338
582,7	379,195
583,2	373,995
583,6	369,452
584,1	366,538
584,5	367,795
585	366,081
585,4	360,852
585,9	357,195
586,3	358,395
586,8	356,452
587,2	357,31
587,6	355,195
588,1	360,281
588,5	360,138
589	358,824
589,4	355,424
589,9	352,681
590,3	351,224
590,8	347,852
591,2	337,967
591,7	339,852
592,1	334,224
592,5	335,338
593	335,11
593,4	326,824
593,9	325,967
594,3	320,567
594,8	314,767
595,2	317,91
595,7	315,738
596,1	313,995
596,6	317,11
597	314,367
597,4	319,824
597,9	317,138
598,3	316,424
598,8	312,224
599,2	309,681
599,7	304,481
600,1	299,767
600,6	295,567
601	296,681
601,4	295,624
601,9	297,967
602,3	294,195
602,8	296,338
603,2	298,452
603,7	297,624
604,1	295,824
604,6	288,052
605	279,338
605,4	280,91
605,9	276,624
606,3	269,967
606,8	265,652
607,2	263,938
607,7	260,395
608,1	261,624
608,6	262,338
609	268,424
609,4	272,852
609,9	271,824
610,3	269,224
610,8	275,367
611,2	275,395
611,7	272,881
612,1	264,852
612,6	266,367
613	271,738
613,4	270,881
613,9	265,51
614,3	260,138
614,8	260,281
615,2	258,338
615,7	257,624
616,1	251,91
616,6	247,967
617	249,538
617,4	252,681
617,9	252,824
618,3	253,11
618,8	251,281
619,2	247,281
619,7	251,452
620,1	250,367
620,5	252,824
621	244,252
621,4	246,167
621,9	239,138
622,3	243,795
622,8	238,024
623,2	232,224
623,6	224,967
624,1	227,224
624,5	223,31
625	229,252
625,4	224,51
625,9	226,652
626,3	228,081
626,8	228,91
627,2	231,167
627,6	222,795
628,1	213,995
628,5	217,338
629	214,824
629,4	212,481
629,9	212,652
630,3	205,424
630,7	210,167
631,2	210,938
631,6	209,595
632,1	209,024
632,5	211,452
633	206,652
633,4	209,624
633,8	211,367
634,3	213,167
634,7	207,081
635,2	203,11
635,6	197,51
636,1	198,51
636,5	195,338
636,9	193,738
637,4	190,167
637,8	185,31
638,3	183,567
638,7	182,795
639,2	181,11
639,6	178,081
640	175,91
640,5	176,567
640,9	179,967
641,4	183,938
641,8	186,51
642,2	185,024
642,7	189,167
643,1	191,538
643,6	190,91
644	191,938
644,5	187,738
644,9	185,367
645,3	187,824
645,8	180,681
646,2	180,424
646,7	177,11
647,1	174,452
647,6	174,281
648	172,424
648,4	163,052
648,9	167,395
649,3	160,795
649,8	161,452
650,2	160,624
650,6	160,71
651,1	160,595
651,5	166,338
652	163,024
652,4	161,71
652,9	161,51
653,3	159,481
653,7	157,338
654,2	156,538
654,6	152,51
655,1	152,024
655,5	156,852
655,9	151,367
656,4	152,767
656,8	152,081
657,3	153,681
657,7	157,881
658,2	157,138
658,6	152,538
659	156,652
659,5	152,995
659,9	153,681
660,4	150,11
660,8	146,738
661,2	143,967
661,7	142,824
662,1	141,338
662,6	143,367
663	142,052
663,4	140,281
663,9	137,91
664,3	137,138
664,8	134,881
665,2	130,51
665,6	127,138
666,1	128,538
666,5	130,91
667	130,252
667,4	130,938
667,9	132,052
668,3	134,452
668,7	133,367
669,2	130,995
669,6	126,624
670,1	126,167
670,5	123,51
670,9	123,052
671,4	121,738
671,8	125,138
672,3	125,538
672,7	126,51
673,1	127,11
673,6	126,452
674	127,767
674,5	124,595
674,9	116,195
675,3	110,624
675,8	112,11
676,2	108,51
676,7	108,795
677,1	103,852
677,5	103,881
678	106,052
678,4	109,31
678,9	103,967
679,3	103,681
679,7	100,852
680,2	96,71
680,6	95,081
681,1	95,11
681,5	94,681
681,9	101,281
682,4	102,195
682,8	103,595
683,3	106,795
683,7	108,881
684,1	108,252
684,6	106,51
685	99,452
685,5	97,052
685,9	92,967
686,3	92,024
686,8	92,424
687,2	93,767
687,7	91,938
688,1	90,91
688,5	91,824
689	93,452
689,4	91,052
689,9	88,652
690,3	83,452
690,7	87,738
691,2	93,024
691,6	93,11
692	99,71
692,5	101,167
692,9	101,481
693,4	102,995
693,8	99,795
694,2	93,595
694,7	93,367
695,1	87,052
695,6	89,681
696	95,852
696,4	95,967
696,9	91,767
697,3	93,852
697,8	91,11
698,2	89,452
698,6	87,881
699,1	80,481
699,5	82,71
699,9	82,795
700,4	76,338
700,8	75,51
701,3	78,652
701,7	78,081
702,1	78,995
702,6	75,195
703	77,995
703,5	80,595
703,9	80,138
704,3	77,395
704,8	73,681
705,2	69,338
705,6	68,338
706,1	67,995
706,5	68,452
707	71,824
707,4	74,91
707,8	72,138
708,3	75,967
708,7	81,167
709,2	80,338
709,6	77,195
710	77,481
710,5	74,281
710,9	76,538
711,3	74,024
711,8	70,11
712,2	66,424
712,7	66,281
713,1	66,452
713,5	65,967
714	68,967
714,4	68,538
714,8	71,31
715,3	70,224
715,7	71,967
716,2	67,795
716,6	69,452
717	64,138
717,5	62,795
717,9	59,052
718,3	59,71
718,8	58,538
719,2	59,024
719,7	57,595
720,1	62,624
720,5	66,31
721	65,824
721,4	67,652
721,8	75,881
722,3	68,195
722,7	73,11
723,2	65,338
723,6	57,595
724	56,51
724,5	55,824
724,9	49,252
725,3	53,11
725,8	48,081
726,2	51,538
726,7	54,967
727,1	54,824
727,5	54,595
728	52,138
728,4	57,595
728,8	53,652
729,3	52,967
729,7	48,224
730,1	48,967
730,6	52,824
731	53,052
731,5	48,252
731,9	49,567
732,3	50,71
732,8	58,052
733,2	56,967
733,6	52,824
734,1	50,024
734,5	52,995
734,9	55,852
735,4	57,652
735,8	49,081
736,3	52,71
736,7	50,224
737,1	53,624
737,6	52,281
738	51,138
738,4	46,71
738,9	52,11
739,3	49,195
739,7	47,938
740,2	46,452
740,6	46,824
741,1	48,795
741,5	48,138
741,9	46,795
742,4	47,024
742,8	46,852
743,2	49,11
743,7	42,167
744,1	35,91
744,5	35,824
745	35,052
745,4	32,367
745,8	33,738
746,3	30,881
746,7	33,538
747,2	35,452
747,6	41,252
748	44,795
748,5	48,252
748,9	46,424
749,3	47,795
749,8	47,795
750,2	47,852
750,6	39,967
751,1	38,252
751,5	38,052
751,9	41,367
752,4	40,681
752,8	41,367
753,3	42,824
753,7	50,738
754,1	47,738
754,6	43,424
755	39,395
755,4	38,824
755,9	40,824
756,3	40,995
756,7	36,824
757,2	41,424
757,6	43,91
758	48,31
758,5	50,852
758,9	48,595
759,3	47,252
759,8	43,624
760,2	41,395
760,6	39,367
761,1	36,967
761,5	32,51
761,9	31,881
762,4	30,081
762,8	28,367
763,3	25,824
763,7	30,795
764,1	30,51
764,6	32,452
765	35,767
765,4	36,624
765,9	41,852
766,3	43,824
766,7	38,91
767,2	35,881
767,6	36,967
768	37,852
768,5	36,452
768,9	38,024
769,3	37,938
769,8	38,081
770,2	41,452
770,6	37,081
771,1	33,195
771,5	33,852
771,9	32,338
772,4	32,71
772,8	33,624
773,2	35,081
773,7	35,367
774,1	36,795
774,5	32,881
775	28,624
775,4	30,852
775,8	25,51
776,3	27,652
776,7	27,252
777,1	24,767
777,6	29,052
778	35,081
778,4	32,052
778,9	37,138
779,3	33,167
779,7	35,167
780,2	35,824
780,6	35,367
781	30,138
781,5	25,281
781,9	23,31
782,3	22,938
782,8	20,795
783,2	18,481
783,6	23,452
784,1	24,424
784,5	27,71
784,9	28,595
785,4	28,595
785,8	30,024
786,2	33,252
786,7	27,195
787,1	29,624
787,5	30,052
788	28,852
788,4	29,91
788,8	29,338
789,3	25,738
789,7	29,652
790,1	27,481
790,6	29,424
791	28,481
791,4	27,538
791,9	25,395
792,3	25,824
792,7	25,167
793,2	24,338
793,6	25,91
794	26,167
794,5	22,995
794,9	26,052
795,3	28,967
795,8	26,167
796,2	27,367
796,6	21,767
797,1	21,452
797,5	21,995
797,9	19,481
798,4	18,024
798,8	17,138
799,2	15,51
799,7	18,795
800,1	18,938
800,5	21,395
801	23,11
801,4	20,195
801,8	18,652
802,2	18,024
802,7	17,081
803,1	19,11
803,5	18,281
804	19,424
804,4	23,595
804,8	27,281
805,3	28,481
805,7	25,281
806,1	26,081
806,6	24,652
807	25,338
807,4	21,767
807,9	17,138
808,3	17,024
808,7	18,567
809,2	18,452
809,6	24,595
810	23,767
810,4	23,367
810,9	23,824
811,3	23,252
811,7	26,652
812,2	27,91
812,6	25,452
813	26,967
813,5	30,51
813,9	27,31
814,3	31,052
814,8	27,31
815,2	22,481
815,6	16,167
816,1	19,51
816,5	19,281
816,9	22,567
817,3	20,138
817,8	24,967
818,2	26,081
818,6	24,852
819,1	18,995
819,5	17,052
819,9	19,338
820,4	16,424
820,8	10,824
821,2	9,167
821,7	16,567
822,1	24,081
822,5	29,938
822,9	29,881
823,4	29,51
823,8	30,367
824,2	32,652
824,7	26,967
825,1	16,395
825,5	6,852
826	3,595
826,4	3,824
826,8	1,395
827,3	1,795
827,7	3,652
828,1	5,652
828,5	10,167
829	7,052
829,4	10,852
829,8	8,024
830,3	6,281
830,7	3,567
831,1	6,167
831,6	5,31
832	7,31
832,4	4,71
832,8	12,424
833,3	14,052
833,7	15,052
834,1	8,224
834,6	6,024
835	9,395
835,4	12,424
835,8	7,652
836,3	6,452
836,7	10,195
837,1	12,71
837,6	17,367
838	17,367
838,4	17,91
838,9	20,024
839,3	18,881
839,7	21,424
840,1	21,595
840,6	16,338
841	17,138
841,4	16,567
841,9	16,595
842,3	17,938
842,7	15,967
843,1	19,081
843,6	27,824
844	25,595
844,4	27,852
844,9	27,481
845,3	25,995
845,7	21,481
846,2	14,767
846,6	8,624
847	10,51
847,4	5,138
847,9	4,967
848,3	4,51
848,7	5,624
849,2	12,681
849,6	6,281
850	5,967
850,4	7,595
850,9	13,51
851,3	17,224
851,7	19,31
852,2	15,195
852,6	23,395
853	25,481
853,4	22,424
853,9	13,681
854,3	11,224
854,7	11,51
855,2	12,281
855,6	12,852
856	10,281
856,4	7,938
856,9	10,052
857,3	12,767
857,7	12,595
858,2	16,881
858,6	14,881
859	13,11
859,4	19,138
859,9	17,481
860,3	14,367
860,7	15,51
861,1	11,995
861,6	9,652
862	12,195
862,4	11,852
862,9	16,424
863,3	16,738
863,7	11,652
864,1	13,367
864,6	11,052
865	7,281
865,4	4,967
865,9	5,852
866,3	-0,233
866,7	1,852
867,1	-0,005
867,6	3,624
868	5,224
868,4	8,367
868,8	5,11
869,3	12,538
869,7	18,338
870,1	14,91
870,6	15,452
871	-62,576
871,4	-59,919
871,8	-65,376
872,3	-63,719
872,7	-70,69
873,1	-72,719
873,5	-73,205
874	6,224
874,4	1,424
874,8	4,51
875,3	4,595
875,7	8,938
876,1	16,91
876,5	19,367
877	18,567
877,4	14,452
877,8	17,938
878,2	18,195
878,7	16,481
879,1	14,224
879,5	11,424
879,9	11,938
880,4	14,195
880,8	13,081
881,2	12,795
881,7	10,252
882,1	12,452
882,5	11,11
882,9	9,252
883,4	10,367
883,8	10,938
884,2	8,852
884,6	11,224
885,1	8,738
885,5	9,795
885,9	11,595
886,3	14,167
886,8	11,338
887,2	8,51
887,6	5,51
888	4,938
888,5	5,11
888,9	1,652
889,3	-6,233
889,8	-4,262
890,2	-2,919
890,6	-3,005
891	-1,348
891,5	-2,719
891,9	-2,033
892,3	1,624
892,7	-0,833
893,2	0,681
893,6	2,624
894	2,91
894,4	5,795
894,9	9,024
895,3	11,71
895,7	15,167
896,1	13,31
896,6	12,967
897	14,595
897,4	18,652
897,8	20,052
898,3	17,624
898,7	17,938
899,1	18,252
899,5	15,767
900	12,452
900,4	6,767
900,8	3,167
901,2	2,424
901,7	2,595
902,1	1,652
902,5	5,824
902,9	4,138
903,4	4,481
903,8	6,795
904,2	6,224
904,6	5,624
905,1	6,767
905,5	4,824
905,9	8,852
906,3	11,081
906,8	10,681
907,2	13,795
907,6	11,824
908	11,652
908,5	8,595
908,9	4,195
909,3	3,71
909,7	2,452
910,2	1,367
910,6	7,538
911	4,252
911,4	8,567
911,9	7,024
912,3	3,624
912,7	7,481
913,1	9,595
913,6	2,652
914	5,767
914,4	3,824
914,8	6,738
915,3	7,938
915,7	9,538
916,1	4,167
916,5	8,252
916,9	9,624
917,4	11,824
917,8	14,367
918,2	9,881
918,6	0,424
919,1	4,881
919,5	5,995
919,9	4,195
920,3	-0,89
920,8	-1,148
921,2	0,91
921,6	1,681
922	3,481
922,5	0,881
922,9	2,938
923,3	4,195
923,7	1,767
924,2	2,595
924,6	7,652
925	6,995
925,4	4,652
925,8	5,281
926,3	6,338
926,7	3,367
927,1	6,452
927,5	2,252
928	-0,319
928,4	-2,376
928,8	-0,662
929,2	-1,862
929,7	0,967
930,1	0,567
930,5	1,738
930,9	4,367
931,3	7,538
931,8	0,452
932,2	2,995
932,6	2,51
933	-1,262
933,5	-0,462
933,9	-1,576
934,3	-1,89
934,7	1,452
935,2	2,681
935,6	4,252
936	4,138
936,4	3,795
936,8	7,338
937,3	6,567
937,7	10,052
938,1	10,767
938,5	3,795
939	5,852
939,4	5,738
939,8	3,852
940,2	5,738
940,6	2,51
941,1	2,481
941,5	13,967
941,9	13,995
942,3	14,081
942,8	12,624
943,2	13,595
943,6	11,738
944	10,081
944,4	4,167
944,9	0,538
945,3	3,852
945,7	1,052
946,1	-0,462
946,6	-1,805
947	-1,662
947,4	1,51
947,8	6,91
948,2	4,624
948,7	8,281
949,1	4,567
949,5	9,395
949,9	8,91
950,3	8,195
950,8	5,538
951,2	2,652
951,6	-0,348
952	5,281
952,5	0,91
952,9	0,995
953,3	-0,176
953,7	0,824
954,1	8,395
954,6	10,252
955	12,795
955,4	13,852
955,8	16,424
956,2	16,367
956,7	18,338
957,1	11,852
957,5	15,281
957,9	10,795
958,3	12,824
958,8	12,938
959,2	15,024
959,6	15,595
960	13,252
960,5	13,71
960,9	15,11
961,3	11,481
961,7	9,995
962,1	11,538
962,6	10,481
963	13,681
963,4	7,138
963,8	4,938
964,2	10,51
964,7	8,595
965,1	5,338
965,5	6,024
965,9	4,624
966,3	8,738
966,8	10,167
967,2	9,024
967,6	9,252
968	7,738
968,4	4,167
968,9	3,681
969,3	6,31
969,7	3,167
970,1	2,11
970,5	4,481
971	5,367
971,4	6,881
971,8	10,138
972,2	5,195
972,6	3,938
973,1	2,567
973,5	-0,233
973,9	2,252
974,3	1,91
974,7	2,852
975,2	6,31
975,6	10,252
976	13,595
976,4	9,595
976,8	9,338
977,3	8,138
977,7	5,081
978,1	-0,462
978,5	-2,805
978,9	-8,062
979,4	-3,176
979,8	-8,433
980,2	-7,919
980,6	-11,748
981	-7,062
981,5	-4,062
981,9	0,795
982,3	0,967
982,7	5,138
983,1	2,595
983,6	10,395
984	10,652
984,4	7,71
984,8	5,367
985,2	5,452
985,6	7,081
986,1	13,824
986,5	15,424
986,9	8,881
987,3	11,11
987,7	13,767
988,2	13,31
988,6	14,567
989	11,167
989,4	5,824
989,8	8,767
990,3	6,481
990,7	4,367
991,1	5,681
991,5	5,824
991,9	5,995
992,3	8,595
992,8	13,052
993,2	15,11
993,6	16,224
994	16,338
994,4	14,681
994,9	13,767
995,3	12,51
995,7	7,252
996,1	10,481
996,5	8,395
996,9	5,938
997,4	5,967
997,8	3,652
998,2	3,652
998,6	2,967
999	-0,662
999,5	0,767
999,9	0,424
1000,3	-1,805
1000,7	1,881
1001,1	0,567
1001,5	4,51
1002	8,195
1002,4	9,567
1002,8	9,852
1003,2	14,795
1003,6	14,567
1004	17,91
1004,5	12,824
1004,9	9,967
1005,3	4,681
1005,7	5,967
1006,1	-4,09
1006,6	-4,29
1007	-7,662
1007,4	-6,776
1007,8	-7,119
1008,2	-8,319
1008,6	-8,233
1009,1	-2,519
1009,5	-2,319
1009,9	1,481
1010,3	5,338
1010,7	6,824
1011,1	10,881
1011,6	12,624
1012	17,252
1012,4	14,167
1012,8	9,452
1013,2	14,31
1013,6	12,91
1014,1	15,252
1014,5	12,824
1014,9	7,852
1015,3	8,395
1015,7	8,224
1016,1	3,138
1016,6	3,624
1017	1,081
1017,4	1,081
1017,8	0,195
1018,2	2,052
1018,6	0,024
1019,1	-0,405
1019,5	-1,376
1019,9	-4,376
1020,3	-3,29
1020,7	-1,033
1021,1	-2,148
1021,6	1,138
1022	3,424
1022,4	1,71
1022,8	6,138
1023,2	5,852
1023,6	6,081
1024,1	13,91
1024,5	14,224
1024,9	12,252
1025,3	16,224
1025,7	14,995
1026,1	16,681
1026,6	16,538
1027	8,995
1027,4	7,738
1027,8	5,71
1028,2	-0,033
1028,6	1,338
1029	0,195
1029,5	1,624
1029,9	3,624
1030,3	4,31
1030,7	7,795
1031,1	11,195
1031,5	5,11
1032	6,367
1032,4	2,167
1032,8	4,338
1033,2	5,252
1033,6	-0,119
1034	2,767
1034,4	6,795
1034,9	5,852
1035,3	3,138
1035,7	2,995
1036,1	0,681
1036,5	0,938
1036,9	0,538
1037,4	5,081
1037,8	-0,405
1038,2	2,424
1038,6	1,481
1039	7,91
1039,4	11,281
1039,8	3,452
1040,3	-3,805
1040,7	-0,29
1041,1	2,795
1041,5	0,452
1041,9	-5,948
1042,3	-1,719
1042,7	7,195
1043,2	11,31
1043,6	8,167
1044	3,367
1044,4	5,11
1044,8	7,938
1045,2	4,967
1045,6	3,624
1046,1	0,538
1046,5	2,852
1046,9	4,538
1047,3	2,567
1047,7	2,852
1048,1	-0,205
1048,5	-2,119
1049	6,71
1049,4	10,51
1049,8	13,51
1050,2	15,424
1050,6	16,538
1051	19,224
1051,4	21,567
1051,9	12,138
1052,3	16,138
1052,7	14,91
1053,1	11,224
1053,5	13,195
1053,9	14,795
1054,3	11,995
1054,8	18,824
1055,2	18,567
1055,6	19,995
1056	23,767
1056,4	18,795
1056,8	13,967
1057,2	11,852
1057,6	2,51
1058,1	-3,462
1058,5	-6,576
1058,9	-5,348
1059,3	-4,976
1059,7	0,167
1060,1	1,91
1060,5	7,681
1061	12,652
1061,4	13,11
1061,8	11,71
1062,2	12,938
1062,6	12,024
1063	13,424
1063,4	12,995
1063,8	7,881
1064,3	6,424
1064,7	3,31
1065,1	2,281
1065,5	-1,09
1065,9	-2,062
1066,3	-0,805
1066,7	-3,462
1067,1	-6,033
1067,6	-0,576
1068	-5,576
1068,4	-4,348
1068,8	-2,805
1069,2	-3,49
1069,6	-1,005
1070	1,395
1070,4	-0,205
1070,9	7,281
1071,3	5,852
1071,7	2,652
1072,1	2,481
1072,5	-0,119
1072,9	2,938
1073,3	1,052
1073,7	-2,319
1074,2	-4,919
1074,6	-0,976
1075	-3,09
1075,4	0,367
1075,8	1,11
1076,2	1,367
1076,6	5,195
1077	9,081
1077,5	11,424
1077,9	11,51
1078,3	9,052
1078,7	3,967
1079,1	8,481
1079,5	5,252
1079,9	8,138
1080,3	6,452
1080,7	8,195
1081,2	15,195
1081,6	18,167
1082	11,595
1082,4	17,11
1082,8	14,795
1083,2	13,052
1083,6	12,281
1084	7,681
1084,5	8,967
1084,9	4,51
1085,3	-4,376
1085,7	-7,148
1086,1	-8,605
1086,5	-8,719
1086,9	-8,348
1087,3	-8,919
1087,7	-6,719
1088,2	-3,776
1088,6	-3,919
1089	0,138
1089,4	0,938
1089,8	-0,719
1090,2	-2,748
1090,6	1,624
1091	4,281
1091,4	6,338
1091,9	2,595
1092,3	3,11
1092,7	2,624
1093,1	7,795
1093,5	10,938
1093,9	9,11
1094,3	14,11
1094,7	13,567
1095,1	14,081
1095,5	16,481
1096	13,595
1096,4	12,652
1096,8	11,51
1097,2	7,652
1097,6	12,91
1098	13,452
1098,4	14,338
1098,8	15,338
1099,2	17,252
1099,6	18,938
1100,1	16,652
1100,5	10,452
1100,9	9,31
1101,3	7,51
1101,7	4,71
1102,1	1,052
1102,5	3,138
1102,9	7,395
1103,3	10,824
1103,7	11,71
1104,2	10,738
1104,6	12,538
1105	11,51
1105,4	9,024
1105,8	5,338
1106,2	3,195
1106,6	1,624
1107	1,624
1107,4	0,1
1107,8	0,847
1108,3	0,017
