Data from Subt2_305.txt Node
Date: Sat Aug 26 19:13:33 MSK 2023
User: vat
Spectrometer: MAYP114033
Trigger mode: 0
Integration Time (sec): 1,000000E0
Scans to average: 5
Electric dark correction enabled: true
Nonlinearity correction enabled: false
Boxcar width: 3
XAxis mode: Wavelengths
Number of Pixels in Spectrum: 2068
>>>>>Begin Spectral Data<<<<<
199,4	0,067
199,9	3,327
200,4	3,333
200,8	2,31
201,3	-1,548
201,8	1,652
202,2	-0,948
202,7	2,224
203,2	-1,205
203,6	-1,662
204,1	-1,833
204,6	1,51
205	-0,89
205,5	0,31
206	-1,862
206,4	-2,319
206,9	-3,576
207,4	-2,205
207,8	-4,69
208,3	-4,976
208,8	-1,862
209,2	-1,748
209,7	0,681
210,2	3,167
210,6	5,052
211,1	11,538
211,5	7,452
212	7,624
212,5	9,938
212,9	9,024
213,4	9,767
213,9	8,881
214,3	9,081
214,8	15,91
215,3	15,91
215,7	16,052
216,2	19,852
216,7	20,395
217,1	17,652
217,6	15,395
218,1	14,138
218,5	12,767
219	10,11
219,5	11,024
219,9	9,538
220,4	18,481
220,9	19,767
221,3	18,595
221,8	18,652
222,3	22,652
222,7	18,338
223,2	18,538
223,6	13,252
224,1	10,681
224,6	10,138
225	6,995
225,5	6,338
226	6,567
226,4	6,424
226,9	6,338
227,4	5,51
227,8	0,938
228,3	5,824
228,8	2,367
229,2	4,081
229,7	3,652
230,2	2,824
230,6	7,252
231,1	15,967
231,5	15,138
232	15,91
232,5	14,167
232,9	18,024
233,4	16,967
233,9	11,252
234,3	8,967
234,8	7,395
235,3	6,481
235,7	8,452
236,2	5,224
236,7	4,052
237,1	6,11
237,6	5,252
238,1	3,224
238,5	0,652
239	3,224
239,4	5,938
239,9	6,424
240,4	9,195
240,8	12,424
241,3	11,167
241,8	10,881
242,2	5,167
242,7	-2,462
243,2	-1,033
243,6	-3,119
244,1	-2,548
244,6	6,138
245	6,281
245,5	7,51
245,9	7,795
246,4	6,367
246,9	9,538
247,3	5,738
247,8	2,624
248,3	6,824
248,7	8,795
249,2	15,081
249,7	18,51
250,1	17,652
250,6	16,052
251	18,767
251,5	19,452
252	18,681
252,4	18,624
252,9	15,081
253,4	8,795
253,8	9,167
254,3	5,51
254,8	6,881
255,2	4,91
255,7	1,367
256,1	2,881
256,6	9,252
257,1	12,167
257,5	9,481
258	4,281
258,5	7,31
258,9	9,424
259,4	7,681
259,9	9,595
260,3	5,538
260,8	7,681
261,2	6,852
261,7	6,91
262,2	4,481
262,6	3,824
263,1	3,224
263,6	7,31
264	9,195
264,5	12,281
264,9	8,281
265,4	8,938
265,9	10,51
266,3	6,938
266,8	9,738
267,3	6,852
267,7	8,824
268,2	12,138
268,7	14,224
269,1	16,452
269,6	16,595
270	16,852
270,5	15,995
271	12,852
271,4	10,538
271,9	5,138
272,4	7,652
272,8	7,938
273,3	2,224
273,7	3,252
274,2	4,824
274,7	7,395
275,1	11,652
275,6	10,852
276,1	7,167
276,5	9,881
277	12,395
277,4	15,424
277,9	15,424
278,4	15,51
278,8	18,652
279,3	24,281
279,8	24,31
280,2	24,595
280,7	23,338
281,1	20,824
281,6	23,938
282,1	16,938
282,5	14,167
283	13,538
283,4	9,395
283,9	7,71
284,4	10,767
284,8	8,11
285,3	7,852
285,8	8,138
286,2	4,738
286,7	10,052
287,1	9,595
287,6	6,395
288,1	0,538
288,5	2,081
289	5,795
289,5	10,538
289,9	6,424
290,4	8,481
290,8	8,795
291,3	11,652
291,8	13,424
292,2	7,338
292,7	8,938
293,1	10,052
293,6	13,224
294,1	12,795
294,5	15,881
295	16,652
295,5	18,567
295,9	14,967
296,4	10,652
296,8	4,11
297,3	10,681
297,8	10,224
298,2	6,71
298,7	9,424
299,1	9,167
299,6	12,91
300,1	14,452
300,5	9,167
301	11,738
301,5	15,824
301,9	13,624
302,4	9,424
302,8	10,31
303,3	11,395
303,8	7,995
304,2	6,595
304,7	2,081
305,1	0,338
305,6	7,252
306,1	13,081
306,5	13,195
307	18,852
307,4	20,538
307,9	24,138
308,4	25,681
308,8	21,338
309,3	17,681
309,8	14,367
310,2	16,652
310,7	13,51
311,1	10,567
311,6	8,481
312,1	12,852
312,5	12,138
313	16,281
313,4	8,595
313,9	10,824
314,4	9,595
314,8	12,767
315,3	11,767
315,7	8,624
316,2	7,281
316,7	12,595
317,1	16,567
317,6	15,767
318	12,71
318,5	9,138
319	11,538
319,4	12,538
319,9	16,595
320,3	11,71
320,8	14,024
321,3	18,452
321,7	22,567
322,2	20,367
322,6	20,11
323,1	13,538
323,6	12,052
324	11,567
324,5	8,852
324,9	8,481
325,4	6,11
325,9	5,51
326,3	8,224
326,8	9,052
327,2	3,481
327,7	3,995
328,2	5,424
328,6	12,51
329,1	6,252
329,5	2,767
330	2,51
330,5	13,281
330,9	16,881
331,4	14,424
331,8	12,852
332,3	22,767
332,8	26,738
333,2	27,195
333,7	22,395
334,1	19,967
334,6	15,11
335,1	8,11
335,5	4,738
336	2,224
336,4	3,195
336,9	7,881
337,4	11,824
337,8	17,338
338,3	21,967
338,7	22,738
339,2	20,538
339,7	22,767
340,1	15,195
340,6	10,995
341	10,367
341,5	9,281
342	8,081
342,4	9,824
342,9	4,681
343,3	10,595
343,8	8,452
344,2	5,652
344,7	11,11
345,2	8,967
345,6	10,71
346,1	16,652
346,5	10,852
347	12,424
347,5	9,395
347,9	7,252
348,4	7,738
348,8	8,795
349,3	7,024
349,8	12,167
350,2	15,338
350,7	19,595
351,1	18,967
351,6	24,595
352	28,824
352,5	31,767
353	35,995
353,4	41,395
353,9	51,452
354,3	65,252
354,8	71,852
355,3	85,624
355,7	101,395
356,2	125,024
356,6	146,538
357,1	172,824
357,5	203,481
358	245,995
358,5	282,71
358,9	327,31
359,4	372,967
359,8	426,252
360,3	490,538
360,8	558,195
361,2	628,481
361,7	715,738
362,1	813,795
362,6	913,11
363	1027,681
363,5	1141,652
364	1266,138
364,4	1394,995
364,9	1521,738
365,3	1642,138
365,8	1767,567
366,3	1872,538
366,7	1974,881
367,2	2058,51
367,6	2128,11
368,1	2184,595
368,5	2220,338
369	2235,824
369,5	2245,167
369,9	2226,967
370,4	2193,967
370,8	2148,367
371,3	2084,595
371,7	2014,624
372,2	1928,938
372,7	1834,652
373,1	1735,938
373,6	1633,567
374	1536,395
374,5	1432,367
374,9	1333,081
375,4	1237,738
375,9	1145,052
376,3	1057,167
376,8	971,71
377,2	887,31
377,7	812,795
378,2	742,738
378,6	682,767
379,1	624,138
379,5	577,31
380	538,967
380,4	491,281
380,9	454,367
381,4	418,224
381,8	386,338
382,3	360,595
382,7	338,538
383,2	312,452
383,6	294,795
384,1	275,167
384,6	256,567
385	237,024
385,5	219,71
385,9	199,138
386,4	188,167
386,8	178,995
387,3	166,881
387,7	158,852
388,2	153,452
388,7	145,167
389,1	136,538
389,6	128,224
390	121,795
390,5	118,767
390,9	116,252
391,4	108,424
391,9	100,252
392,3	99,824
392,8	90,995
393,2	78,995
393,7	73,11
394,1	65,91
394,6	63,367
395,1	64,481
395,5	58,51
396	61,424
396,4	66,167
396,9	65,538
397,3	69,852
397,8	69,738
398,2	68,224
398,7	68,481
399,2	62,338
399,6	62,252
400,1	60,195
400,5	53,424
401	49,652
401,4	44,881
401,9	45,252
402,4	47,538
402,8	43,138
403,3	47,024
403,7	43,652
404,2	46,367
404,6	47,624
405,1	44,424
405,5	41,795
406	39,624
406,5	36,995
406,9	41,138
407,4	38,852
407,8	42,567
408,3	48,281
408,7	45,281
409,2	54,052
409,6	56,995
410,1	59,595
410,6	65,081
411	68,738
411,5	65,138
411,9	69,824
412,4	66,767
412,8	67,195
413,3	65,195
413,7	62,367
414,2	58,452
414,7	64,252
415,1	72,824
415,6	75,595
416	77,938
416,5	83,481
416,9	84,91
417,4	89,081
417,8	93,624
418,3	94,852
418,8	98,652
419,2	103,224
419,7	102,51
420,1	106,852
420,6	108,452
421	106,967
421,5	106,052
421,9	109,224
422,4	107,51
422,8	109,052
423,3	108,424
423,8	106,795
424,2	101,738
424,7	101,91
425,1	101,652
425,6	101,852
426	100,252
426,5	106,738
426,9	111,738
427,4	109,938
427,9	103,51
428,3	101,024
428,8	101,538
429,2	97,51
429,7	90,024
430,1	84,767
430,6	87,824
431	91,71
431,5	92,081
431,9	83,281
432,4	90,224
432,8	95,195
433,3	97,567
433,8	100,224
434,2	102,681
434,7	107,767
435,1	117,938
435,6	122,052
436	118,252
436,5	124,967
436,9	125,652
437,4	130,338
437,8	132,824
438,3	133,452
438,8	135,767
439,2	144,11
439,7	147,081
440,1	155,338
440,6	163,081
441	159,31
441,5	169,252
441,9	176,224
442,4	181,738
442,8	186,338
443,3	193,195
443,7	196,824
444,2	215,881
444,7	222,624
445,1	231,967
445,6	242,138
446	252,281
446,5	256,281
446,9	258,567
447,4	263,538
447,8	271,795
448,3	281,767
448,7	291,195
449,2	305,881
449,6	320,938
450,1	335,938
450,6	356,624
451	367,481
451,5	383,224
451,9	400,881
452,4	416,167
452,8	430,395
453,3	448,967
453,7	454,395
454,2	474,252
454,6	484,252
455,1	497,681
455,5	504,481
456	526,395
456,4	543,281
456,9	562,367
457,3	579,224
457,8	590,91
458,3	607,252
458,7	631,567
459,2	647,652
459,6	666,567
460,1	690,395
460,5	706,624
461	737,395
461,4	756,538
461,9	777,538
462,3	797,51
462,8	822,967
463,2	840,31
463,7	866,252
464,1	885,681
464,6	914,681
465	940,852
465,5	968,338
466	993,652
466,4	1018,852
466,9	1046,11
467,3	1076,081
467,8	1103,538
468,2	1127,51
468,7	1151,967
469,1	1178,138
469,6	1203,538
470	1226,081
470,5	1249,881
470,9	1270,224
471,4	1292,738
471,8	1314,767
472,3	1337,424
472,7	1369,367
473,2	1393,195
473,6	1413,938
474,1	1444,824
474,5	1477,081
475	1507,795
475,4	1535,424
475,9	1558,967
476,4	1590,138
476,8	1620,824
477,3	1641,052
477,7	1667,995
478,2	1693,938
478,6	1711,795
479,1	1737,252
479,5	1762,081
480	1785,795
480,4	1819,11
480,9	1841,167
481,3	1858,167
481,8	1886,31
482,2	1899,881
482,7	1917,024
483,1	1935,367
483,6	1946,424
484	1956,51
484,5	1980,795
484,9	1996,738
485,4	2020,995
485,8	2037,452
486,3	2055,538
486,7	2072,252
487,2	2094,452
487,6	2106,452
488,1	2116,31
488,5	2126,995
489	2144,995
489,4	2158,71
489,9	2171,024
490,4	2182,481
490,8	2198,595
491,3	2216,624
491,7	2227,881
492,2	2235,567
492,6	2246,281
493,1	2262,795
493,5	2267,224
494	2268,052
494,4	2274,681
494,9	2284,681
495,3	2294,795
495,8	2298,795
496,2	2301,767
496,7	2308,195
497,1	2322,795
497,6	2329,738
498	2336,052
498,5	2339,71
498,9	2345,338
499,4	2345,71
499,8	2354,395
500,3	2357,881
500,7	2357,138
501,2	2355,138
501,6	2357,11
502,1	2357,195
502,5	2362,281
503	2359,852
503,4	2357,852
503,9	2361,452
504,3	2363,167
504,8	2359,395
505,2	2364,881
505,7	2361,224
506,1	2364,452
506,6	2359,767
507	2359,452
507,5	2366,738
507,9	2367,51
508,4	2367,538
508,8	2368,052
509,3	2370,824
509,7	2370,995
510,2	2373,71
510,6	2361,367
511,1	2361,738
511,5	2360,31
512	2355,452
512,4	2350,081
512,9	2351,51
513,3	2350,195
513,8	2356,024
514,2	2356,052
514,7	2351,281
515,1	2348,881
515,6	2344,31
516	2338,11
516,5	2339,252
516,9	2338,167
517,4	2337,624
517,8	2343,395
518,3	2348,424
518,7	2350,338
519,2	2354,224
519,6	2349,31
520,1	2348,31
520,5	2341,795
521	2327,252
521,4	2324,538
521,9	2324,824
522,3	2322,567
522,8	2318,424
523,2	2317,538
523,7	2318,195
524,1	2330,167
524,6	2327,538
525	2323,881
525,5	2319,31
525,9	2319,852
526,4	2314,967
526,8	2319,138
527,3	2313,11
527,7	2313,967
528,2	2316,195
528,6	2320,738
529,1	2326,567
529,5	2334,367
530	2330,71
530,4	2329,824
530,9	2338,138
531,3	2339,167
531,8	2346,881
532,2	2349,338
532,6	2347,652
533,1	2347,91
533,5	2350,395
534	2344,738
534,4	2345,138
534,9	2336,624
535,3	2329,195
535,8	2332,51
536,2	2342,995
536,7	2345,424
537,1	2350,167
537,6	2353,195
538	2359,852
538,5	2367,767
538,9	2363,252
539,4	2364,538
539,8	2367,624
540,3	2373,852
540,7	2373,024
541,2	2372,167
541,6	2373,995
542,1	2380,367
542,5	2377,652
543	2377,652
543,4	2371,652
543,9	2380,681
544,3	2391,567
544,8	2390,424
545,2	2393,681
545,7	2404,681
546,1	2412,224
546,5	2423,224
547	2422,052
547,4	2420,31
547,9	2421,481
548,3	2425,91
548,8	2422,681
549,2	2421,538
549,7	2422,081
550,1	2431,452
550,6	2430,71
551	2434,995
551,5	2437,738
551,9	2446,281
552,4	2450,652
552,8	2453,252
553,3	2450,052
553,7	2452,852
554,2	2464,51
554,6	2469,452
555,1	2466,967
555,5	2469,681
555,9	2472,567
556,4	2475,995
556,8	2481,595
557,3	2476,167
557,7	2479,881
558,2	2484,052
558,6	2490,138
559,1	2490,395
559,5	2494,167
560	2499,052
560,4	2503,481
560,9	2502,51
561,3	2502,081
561,8	2500,052
562,2	2507,538
562,7	2507,624
563,1	2508,881
563,6	2510,252
564	2506,967
564,4	2511,195
564,9	2512,852
565,3	2507,281
565,8	2505,995
566,2	2508,881
566,7	2511,595
567,1	2518,995
567,6	2520,938
568	2520,652
568,5	2524,052
568,9	2527,652
569,4	2527,052
569,8	2527,567
570,3	2526,967
570,7	2513,367
571,1	2516,824
571,6	2520,367
572	2523,624
572,5	2521,852
572,9	2518,91
573,4	2517,681
573,8	2533,481
574,3	2528,452
574,7	2522,195
575,2	2514,91
575,6	2510,824
576,1	2510,995
576,5	2506,938
576,9	2497,31
577,4	2499,852
577,8	2496,852
578,3	2496,652
578,7	2499,424
579,2	2502,138
579,6	2496,11
580,1	2495,51
580,5	2490,881
581	2491,824
581,4	2493,452
581,9	2490,538
582,3	2486,367
582,7	2493,91
583,2	2489,995
583,6	2489,967
584,1	2490,281
584,5	2483,767
585	2477,938
585,4	2468,91
585,9	2459,681
586,3	2460,481
586,8	2454,852
587,2	2449,195
587,6	2448,795
588,1	2443,538
588,5	2441,824
589	2441,452
589,4	2429,167
589,9	2428,281
590,3	2421,595
590,8	2415,738
591,2	2418,338
591,7	2422,71
592,1	2420,481
592,5	2428,91
593	2424,938
593,4	2418,51
593,9	2414,652
594,3	2403,081
594,8	2390,052
595,2	2380,995
595,7	2369,51
596,1	2362,138
596,6	2361,852
597	2359,167
597,4	2356,681
597,9	2352,338
598,3	2350,681
598,8	2347,567
599,2	2341,738
599,7	2332,052
600,1	2325,395
600,6	2324,624
601	2321,71
601,4	2322,967
601,9	2319,824
602,3	2317,424
602,8	2320,652
603,2	2315,424
603,7	2311,567
604,1	2309,224
604,6	2297,024
605	2286,167
605,4	2283,595
605,9	2270,967
606,3	2259,681
606,8	2253,91
607,2	2242,881
607,7	2234,938
608,1	2234,681
608,6	2230,424
609	2228,281
609,4	2231,081
609,9	2217,281
610,3	2210,224
610,8	2205,052
611,2	2197,967
611,7	2183,681
612,1	2177,252
612,6	2167,595
613	2169,738
613,4	2166,71
613,9	2158,538
614,3	2152,31
614,8	2146,595
615,2	2138,767
615,7	2132,052
616,1	2122,624
616,6	2110,595
617	2106,51
617,4	2098,51
617,9	2100,852
618,3	2099,91
618,8	2098,51
619,2	2089,11
619,7	2089,252
620,1	2077,31
620,5	2073,224
621	2053,652
621,4	2039,881
621,9	2022,767
622,3	2012,795
622,8	1997,167
623,2	1991,452
623,6	1977,138
624,1	1970,795
624,5	1964,795
625	1961,595
625,4	1958,395
625,9	1952,995
626,3	1949,024
626,8	1941,624
627,2	1933,081
627,6	1918,195
628,1	1905,224
628,5	1896,938
629	1882,51
629,4	1869,881
629,9	1862,938
630,3	1854,795
630,7	1844,681
631,2	1841,852
631,6	1823,195
632,1	1817,052
632,5	1803,738
633	1794,624
633,4	1786,881
633,8	1781,967
634,3	1768,881
634,7	1767,052
635,2	1759,91
635,6	1755,652
636,1	1744,224
636,5	1728,767
636,9	1716,252
637,4	1709,252
637,8	1698,71
638,3	1689,11
638,7	1677,052
639,2	1668,767
639,6	1669,395
640	1662,967
640,5	1648,995
640,9	1637,881
641,4	1629,967
641,8	1622,195
642,2	1617,138
642,7	1604,767
643,1	1601,11
643,6	1595,595
644	1590,424
644,5	1586,767
644,9	1583,452
645,3	1574,852
645,8	1563,167
646,2	1557,71
646,7	1554,195
647,1	1544,995
647,6	1537,31
648	1530,995
648,4	1520,967
648,9	1519,938
649,3	1512,567
649,8	1503,31
650,2	1503,424
650,6	1497,624
651,1	1484,995
651,5	1481,91
652	1474,452
652,4	1458,395
652,9	1450,91
653,3	1436,367
653,7	1426,138
654,2	1422,367
654,6	1413,252
655,1	1410,824
655,5	1411,481
655,9	1401,624
656,4	1397,538
656,8	1388,852
657,3	1378,138
657,7	1373,024
658,2	1359,338
658,6	1350,081
659	1344,538
659,5	1335,938
659,9	1328,338
660,4	1320,252
660,8	1304,51
661,2	1299,481
661,7	1296,71
662,1	1286,91
662,6	1278,91
663	1273,71
663,4	1268,338
663,9	1264,681
664,3	1253,995
664,8	1241,11
665,2	1238,224
665,6	1229,338
666,1	1218,71
666,5	1212,167
667	1208,167
667,4	1196,938
667,9	1190,024
668,3	1182,252
668,7	1175,881
669,2	1173,681
669,6	1171,281
670,1	1167,052
670,5	1160,081
670,9	1149,824
671,4	1142,738
671,8	1141,795
672,3	1140,11
672,7	1129,024
673,1	1111,938
673,6	1108,395
674	1104,795
674,5	1096,995
674,9	1080,767
675,3	1062,624
675,8	1056,595
676,2	1053,138
676,7	1048,281
677,1	1041,481
677,5	1035,138
678	1036,224
678,4	1038,31
678,9	1031,138
679,3	1026,51
679,7	1023,652
680,2	1015,681
680,6	1007,424
681,1	999,938
681,5	991,052
681,9	985,795
682,4	985,538
682,8	976,424
683,3	970,767
683,7	965,824
684,1	957,167
684,6	951,167
685	942,224
685,5	931,995
685,9	925,624
686,3	915,51
686,8	907,995
687,2	906,995
687,7	896,281
688,1	891,881
688,5	886,681
689	882,824
689,4	879,452
689,9	875,595
690,3	865,224
690,7	863,938
691,2	862,538
691,6	856,195
692	849,595
692,5	842,624
692,9	838,081
693,4	829,795
693,8	825,138
694,2	813,938
694,7	809,91
695,1	800,881
695,6	802,852
696	801,367
696,4	802,852
696,9	795,052
697,3	787,824
697,8	777,367
698,2	777,052
698,6	772,138
699,1	764,567
699,5	762,052
699,9	758,195
700,4	756,424
700,8	759,395
701,3	752,967
701,7	744,481
702,1	742,767
702,6	731,852
703	728,252
703,5	723,195
703,9	714,138
704,3	709,452
704,8	706,224
705,2	695,452
705,6	690,31
706,1	686,852
706,5	684,024
707	680,91
707,4	677,51
707,8	672,738
708,3	676,538
708,7	678,795
709,2	674,595
709,6	672,31
710	670,424
710,5	665,881
710,9	662,081
711,3	650,281
711,8	643,167
712,2	636,91
712,7	626,995
713,1	622,538
713,5	622,852
714	618,538
714,4	614,424
714,8	609,995
715,3	606,881
715,7	607,967
716,2	600,052
716,6	593,767
717	587,052
717,5	582,052
717,9	584,995
718,3	577,195
718,8	570,31
719,2	569,31
719,7	567,967
720,1	571,51
720,5	572,367
721	561,481
721,4	562,767
721,8	561,852
722,3	555,224
722,7	553,081
723,2	539,91
723,6	527,824
724	521,91
724,5	517,452
724,9	516,795
725,3	515,367
725,8	506,767
726,2	507,967
726,7	508,567
727,1	505,738
727,5	502,281
728	495,195
728,4	490,481
728,8	483,281
729,3	476,281
729,7	471,71
730,1	472,624
730,6	468,31
731	461,967
731,5	458,71
731,9	457,938
732,3	461,795
732,8	462,51
733,2	457,138
733,6	454,881
734,1	456,052
734,5	455,452
734,9	456,31
735,4	450,138
735,8	443,452
736,3	447,281
736,7	446,567
737,1	442,624
737,6	440,738
738	439,167
738,4	438,938
738,9	439,538
739,3	436,51
739,7	431,51
740,2	427,795
740,6	432,138
741,1	428,767
741,5	421,738
741,9	422,424
742,4	418,052
742,8	418,995
743,2	423,138
743,7	411,624
744,1	410,281
744,5	408,938
745	405,195
745,4	396,395
745,8	393,681
746,3	384,881
746,7	382,024
747,2	376,395
747,6	380,51
748	380,995
748,5	385,795
748,9	375,167
749,3	373,081
749,8	373,567
750,2	372,024
750,6	364,252
751,1	361,71
751,5	356,024
751,9	362,567
752,4	362,538
752,8	357,424
753,3	354,652
753,7	355,852
754,1	350,91
754,6	348,938
755	340,995
755,4	337,424
755,9	338,024
756,3	333,081
756,7	333,367
757,2	331,595
757,6	328,795
758	328,652
758,5	323,995
758,9	324,167
759,3	327,138
759,8	320,824
760,2	318,852
760,6	317,081
761,1	315,91
761,5	318,081
761,9	314,481
762,4	309,995
762,8	307,595
763,3	304,167
763,7	300,652
764,1	297,967
764,6	294,938
765	291,538
765,4	292,424
765,9	293,31
766,3	296,538
766,7	290,538
767,2	289,367
767,6	290,081
768	285,91
768,5	281,595
768,9	278,11
769,3	269,567
769,8	267,481
770,2	268,367
770,6	266,795
771,1	266,91
771,5	265,652
771,9	265,624
772,4	267,71
772,8	268,652
773,2	265,824
773,7	262,081
774,1	259,281
774,5	253,424
775	251,795
775,4	248,281
775,8	248,224
776,3	247,881
776,7	246,452
777,1	246,624
777,6	248,424
778	247,338
778,4	246,595
778,9	245,052
779,3	239,481
779,7	241,995
780,2	243,138
780,6	238,938
781	238,424
781,5	234,967
781,9	235,91
782,3	231,71
782,8	228,795
783,2	224,395
783,6	233,567
784,1	227,395
784,5	227,681
784,9	225,71
785,4	230,767
785,8	229,367
786,2	225,71
786,7	219,51
787,1	213,681
787,5	211,281
788	208,224
788,4	202,995
788,8	198,51
789,3	198,595
789,7	198,481
790,1	198,881
790,6	202,681
791	197,395
791,4	199,71
791,9	193,824
792,3	189,452
792,7	189,481
793,2	189,024
793,6	184,538
794	186,71
794,5	182,995
794,9	187,91
795,3	192,281
795,8	186,081
796,2	189,652
796,6	186,852
797,1	183,224
797,5	177,252
797,9	174,767
798,4	166,881
798,8	163,71
799,2	162,167
799,7	166,224
800,1	168,967
800,5	169,795
801	171,452
801,4	173,91
801,8	174,367
802,2	166,767
802,7	162,795
803,1	161,91
803,5	164,681
804	161,367
804,4	161,395
804,8	159,395
805,3	162,938
805,7	159,281
806,1	158,91
806,6	158,967
807	157,367
807,4	153,767
807,9	150,052
808,3	150,738
808,7	150,252
809,2	151,795
809,6	151,538
810	149,91
810,4	150,424
810,9	155,367
811,3	151,424
811,7	153,31
812,2	148,281
812,6	144,167
813	145,11
813,5	145,481
813,9	139,91
814,3	139,138
814,8	134,195
815,2	136,195
815,6	136,595
816,1	134,595
816,5	133,224
816,9	133,852
817,3	131,11
817,8	139,224
818,2	134,51
818,6	130,51
819,1	128,91
819,5	126,481
819,9	129,824
820,4	131,824
820,8	122,367
821,2	121,595
821,7	122,138
822,1	124,481
822,5	130,31
822,9	125,567
823,4	122,395
823,8	123,71
824,2	124,595
824,7	123,481
825,1	118,595
825,5	112,738
826	106,195
826,4	108,138
826,8	104,195
827,3	105,138
827,7	102,738
828,1	103,567
828,5	101,881
829	102,681
829,4	103,024
829,8	104,081
830,3	98,681
830,7	98,595
831,1	98,824
831,6	99,052
832	101,452
832,4	94,538
832,8	95,167
833,3	95,824
833,7	90,538
834,1	85,481
834,6	82,738
835	86,652
835,4	92,167
835,8	88,624
836,3	85,995
836,7	90,138
837,1	90,424
837,6	94,595
838	87,795
838,4	87,138
838,9	86,081
839,3	91,31
839,7	91,595
840,1	86,738
840,6	82,252
841	85,167
841,4	80,881
841,9	81,052
842,3	74,367
842,7	75,31
843,1	79,452
843,6	81,767
844	80,967
844,4	85,024
844,9	90,91
845,3	94,452
845,7	89,51
846,2	87,881
846,6	83,452
847	82,538
847,4	79,967
847,9	73,452
848,3	71,281
848,7	76,252
849,2	76,795
849,6	73,195
850	75,367
850,4	74,367
850,9	74,852
851,3	74,081
851,7	70,51
852,2	72,681
852,6	80,11
853	77,538
853,4	77,081
853,9	75,367
854,3	75,51
854,7	75,281
855,2	72,567
855,6	71,652
856	69,138
856,4	67,081
856,9	66,395
857,3	66,481
857,7	70,881
858,2	75,138
858,6	69,967
859	69,538
859,4	71,11
859,9	70,367
860,3	67,738
860,7	63,452
861,1	59,338
861,6	60,081
862	59,995
862,4	59,567
862,9	60,31
863,3	59,224
863,7	58,481
864,1	57,252
864,6	55,195
865	57,081
865,4	58,681
865,9	62,081
866,3	59,395
866,7	60,195
867,1	60,167
867,6	61,481
868	55,595
868,4	51,11
868,8	47,338
869,3	51,767
869,7	52,538
870,1	48,681
870,6	46,167
871	-25,948
871,4	-21,062
871,8	-22,462
872,3	-20,576
872,7	-21,605
873,1	-20,119
873,5	-19,833
874	53,767
874,4	53,938
874,8	52,338
875,3	50,567
875,7	48,052
876,1	48,91
876,5	51,595
877	50,024
877,4	43,967
877,8	47,224
878,2	48,71
878,7	52,738
879,1	54,767
879,5	54,995
879,9	57,967
880,4	62,881
880,8	62,11
881,2	59,338
881,7	53,652
882,1	52,852
882,5	51,452
882,9	48,938
883,4	44,138
883,8	45,11
884,2	44,138
884,6	45,91
885,1	45,052
885,5	42,624
885,9	42,595
886,3	41,652
886,8	36,195
887,2	35,71
887,6	34,91
888	35,652
888,5	38,167
888,9	39,881
889,3	39,595
889,8	40,852
890,2	41,31
890,6	36,081
891	35,767
891,5	34,31
891,9	34,624
892,3	35,824
892,7	41,195
893,2	40,938
893,6	48,024
894	47,11
894,4	46,395
894,9	44,652
895,3	44,538
895,7	41,738
896,1	40,852
896,6	35,481
897	35,995
897,4	39,367
897,8	43,167
898,3	43,91
898,7	39,852
899,1	39,167
899,5	39,395
900	34,767
900,4	27,995
900,8	22,967
901,2	20,71
901,7	24,081
902,1	26,481
902,5	28,938
902,9	29,338
903,4	33,224
903,8	33,938
904,2	32,081
904,6	31,338
905,1	29,881
905,5	28,024
905,9	31,481
906,3	33,681
906,8	39,652
907,2	44,11
907,6	43,138
908	47,481
908,5	46,167
908,9	42,881
909,3	39,024
909,7	32,71
910,2	29,681
910,6	36,195
911	27,595
911,4	31,31
911,9	32,624
912,3	30,652
912,7	31,567
913,1	33,738
913,6	25,538
914	29,338
914,4	25,424
914,8	22,51
915,3	21,395
915,7	22,395
916,1	19,367
916,5	23,281
916,9	20,052
917,4	23,167
917,8	27,424
918,2	26,138
918,6	22,081
919,1	20,281
919,5	18,71
919,9	19,852
920,3	18,395
920,8	16,795
921,2	19,224
921,6	18,624
922	24,767
922,5	27,71
922,9	28,395
923,3	29,224
923,7	29,424
924,2	27,938
924,6	33,024
925	30,624
925,4	22,767
925,8	24,767
926,3	23,881
926,7	20,052
927,1	22,424
927,5	20,681
928	17,795
928,4	21,338
928,8	20,11
929,2	16,567
929,7	20,138
930,1	20,881
930,5	21,995
930,9	22,738
931,3	20,852
931,8	20,167
932,2	23,338
932,6	22,31
933	15,024
933,5	15,767
933,9	17,852
934,3	23,538
934,7	21,767
935,2	19,424
935,6	18,452
936	26,681
936,4	23,31
936,8	23,11
937,3	18,938
937,7	21,395
938,1	27,167
938,5	22,51
939	22,652
939,4	23,995
939,8	22,852
940,2	20,738
940,6	23,081
941,1	17,51
941,5	22,738
941,9	17,51
942,3	13,681
942,8	12,51
943,2	14,31
943,6	9,281
944	7,91
944,4	7,71
944,9	9,852
945,3	9,481
945,7	9,395
946,1	7,795
946,6	6,71
947	10,281
947,4	11,51
947,8	12,624
948,2	11,852
948,7	15,395
949,1	17,367
949,5	20,452
949,9	20,452
950,3	21,167
950,8	19,224
951,2	22,481
951,6	16,595
952	18,91
952,5	12,967
952,9	12,624
953,3	11,252
953,7	11,595
954,1	14,824
954,6	17,11
955	17,738
955,4	22,567
955,8	25,567
956,2	23,71
956,7	23,567
957,1	17,138
957,5	20,91
957,9	16,881
958,3	11,881
958,8	11,91
959,2	14,195
959,6	17,624
960	17,967
960,5	18,424
960,9	20,081
961,3	25,252
961,7	20,624
962,1	21,481
962,6	21,767
963	21,395
963,4	11,081
963,8	12,167
964,2	10,195
964,7	11,91
965,1	12,967
965,5	13,424
965,9	13,681
966,3	21,367
966,8	19,138
967,2	21,081
967,6	21,052
968	18,881
968,4	16,824
968,9	19,138
969,3	27,395
969,7	23,967
970,1	25,395
970,5	24,595
971	25,167
971,4	22,338
971,8	23,824
972,2	16,852
972,6	20,681
973,1	17,424
973,5	19,938
973,9	20,167
974,3	22,452
974,7	20,567
975,2	22,195
975,6	19,195
976	21,795
976,4	15,31
976,8	14,367
977,3	14,367
977,7	13,51
978,1	11,71
978,5	11,738
978,9	6,452
979,4	7,624
979,8	6,538
980,2	4,795
980,6	2,395
981	2,71
981,5	5,624
981,9	8,424
982,3	11,338
982,7	12,852
983,1	10,967
983,6	14,395
984	12,281
984,4	13,567
984,8	15,424
985,2	17,281
985,6	13,395
986,1	16,624
986,5	19,881
986,9	17,052
987,3	16,995
987,7	16,481
988,2	8,595
988,6	11,424
989	10,538
989,4	6,424
989,8	6,224
990,3	3,767
990,7	2,452
991,1	5,538
991,5	8,567
991,9	6,452
992,3	10,938
992,8	17,795
993,2	18,681
993,6	19,767
994	25,967
994,4	23,052
994,9	27,881
995,3	22,624
995,7	17,452
996,1	16,852
996,5	17,167
996,9	12,824
997,4	12,995
997,8	7,11
998,2	5,31
998,6	1,024
999	-2,119
999,5	-5,605
999,9	-8,462
1000,3	-7,862
1000,7	-4,433
1001,1	-3,176
1001,5	4,424
1002	12,167
1002,4	15,538
1002,8	16,824
1003,2	17,881
1003,6	19,995
1004	25,281
1004,5	21,167
1004,9	16,452
1005,3	12,652
1005,7	16,681
1006,1	13,938
1006,6	10,881
1007	9,51
1007,4	10,138
1007,8	13,995
1008,2	13,652
1008,6	14,938
1009,1	13,252
1009,5	15,338
1009,9	17,138
1010,3	16,652
1010,7	14,481
1011,1	17,624
1011,6	16,824
1012	21,738
1012,4	18,567
1012,8	14,452
1013,2	18,767
1013,6	17,424
1014,1	20,31
1014,5	18,252
1014,9	17,824
1015,3	17,967
1015,7	19,31
1016,1	17,338
1016,6	16,881
1017	16,138
1017,4	16,852
1017,8	15,138
1018,2	19,11
1018,6	15,595
1019,1	12,938
1019,5	15,195
1019,9	9,452
1020,3	10,024
1020,7	9,11
1021,1	7,195
1021,6	8,595
1022	10,824
1022,4	7,681
1022,8	12,338
1023,2	12,252
1023,6	14,595
1024,1	20,11
1024,5	21,71
1024,9	21,338
1025,3	23,367
1025,7	23,452
1026,1	23,681
1026,6	22,338
1027	20,738
1027,4	21,652
1027,8	18,91
1028,2	16,71
1028,6	22,281
1029	18,51
1029,5	22,567
1029,9	16,938
1030,3	11,767
1030,7	15,452
1031,1	16,138
1031,5	4,195
1032	3,738
1032,4	-0,862
1032,8	6,052
1033,2	8,481
1033,6	5,024
1034	5,338
1034,4	8,852
1034,9	14,052
1035,3	10,91
1035,7	5,738
1036,1	8,51
1036,5	9,052
1036,9	7,024
1037,4	11,767
1037,8	6,424
1038,2	4,967
1038,6	5,881
1039	8,395
1039,4	10,424
1039,8	8,995
1040,3	6,624
1040,7	9,995
1041,1	16,481
1041,5	14,824
1041,9	11,052
1042,3	7,995
1042,7	11,281
1043,2	9,481
1043,6	5,224
1044	1,51
1044,4	1,738
1044,8	0,681
1045,2	6,652
1045,6	8,538
1046,1	10,738
1046,5	14,367
1046,9	17,138
1047,3	19,51
1047,7	16,652
1048,1	10,881
1048,5	8,995
1049	9,652
1049,4	13,824
1049,8	15,624
1050,2	14,195
1050,6	22,852
1051	23,624
1051,4	23,91
1051,9	25,138
1052,3	29,824
1052,7	25,967
1053,1	21,652
1053,5	18,738
1053,9	23,224
1054,3	20,595
1054,8	20,567
1055,2	16,51
1055,6	24,252
1056	27,11
1056,4	24,624
1056,8	21,967
1057,2	25,51
1057,6	19,538
1058,1	11,595
1058,5	1,395
1058,9	5,195
1059,3	9,024
1059,7	12,138
1060,1	13,881
1060,5	19,567
1061	25,852
1061,4	27,481
1061,8	24,395
1062,2	19,652
1062,6	17,71
1063	18,538
1063,4	14,367
1063,8	8,024
1064,3	7,281
1064,7	8,738
1065,1	9,11
1065,5	6,052
1065,9	-0,148
1066,3	-0,862
1066,7	0,567
1067,1	0,71
1067,6	2,338
1068	2,481
1068,4	5,852
1068,8	10,767
1069,2	13,51
1069,6	13,11
1070	16,51
1070,4	14,681
1070,9	14,424
1071,3	15,824
1071,7	12,281
1072,1	12,338
1072,5	9,195
1072,9	6,31
1073,3	5,767
1073,7	3,224
1074,2	0,938
1074,6	4,338
1075	-0,376
1075,4	5,567
1075,8	14,195
1076,2	11,738
1076,6	18,138
1077	21,881
1077,5	24,938
1077,9	27,338
1078,3	25,11
1078,7	17,71
1079,1	20,224
1079,5	19,052
1079,9	16,31
1080,3	8,224
1080,7	12,624
1081,2	16,881
1081,6	13,595
1082	14,424
1082,4	17,738
1082,8	14,91
1083,2	15,91
1083,6	15,052
1084	12,624
1084,5	18,624
1084,9	15,138
1085,3	6,852
1085,7	10,538
1086,1	14,395
1086,5	14,138
1086,9	15,281
1087,3	15,452
1087,7	15,91
1088,2	18,767
1088,6	14,91
1089	12,852
1089,4	8,424
1089,8	9,452
1090,2	8,738
1090,6	10,452
1091	13,681
1091,4	15,938
1091,9	15,967
1092,3	19,167
1092,7	17,938
1093,1	20,967
1093,5	19,595
1093,9	17,224
1094,3	18,995
1094,7	13,767
1095,1	12,795
1095,5	11,681
1096	6,51
1096,4	8,595
1096,8	8,138
1097,2	6,081
1097,6	15,624
1098	18,595
1098,4	22,224
1098,8	23,31
1099,2	27,567
1099,6	25,595
1100,1	25,71
1100,5	20,824
1100,9	18,681
1101,3	14,624
1101,7	16,91
1102,1	12,995
1102,5	16,995
1102,9	16,338
1103,3	19,367
1103,7	17,052
1104,2	17,338
1104,6	13,052
1105	11,395
1105,4	10,252
1105,8	7,995
1106,2	4,052
1106,6	5,024
1107	3,31
1107,4	3,533
1107,8	3,207
1108,3	-0,133
