Data from Subt2_220.txt Node
Date: Sat Aug 26 18:49:38 MSK 2023
User: vat
Spectrometer: MAYP114033
Trigger mode: 0
Integration Time (sec): 1,000000E0
Scans to average: 5
Electric dark correction enabled: true
Nonlinearity correction enabled: false
Boxcar width: 3
XAxis mode: Wavelengths
Number of Pixels in Spectrum: 2068
>>>>>Begin Spectral Data<<<<<
199,4	-0,333
199,9	0,467
200,4	0,9
200,8	1,952
201,3	1,924
201,8	3,495
202,2	-1,219
202,7	4,924
203,2	6,095
203,6	5,152
204,1	1,981
204,6	1,838
205	4,152
205,5	8,21
206	2,038
206,4	1,238
206,9	1,01
207,4	1,695
207,8	0,438
208,3	-1,762
208,8	0,381
209,2	3,838
209,7	3,495
210,2	2,552
210,6	5,181
211,1	8,581
211,5	2,838
212	2,495
212,5	1,724
212,9	-1,162
213,4	0,295
213,9	-1,276
214,3	-1,248
214,8	5,381
215,3	5,638
215,7	6,781
216,2	12,752
216,7	13,552
217,1	13,438
217,6	15,581
218,1	14,21
218,5	11,695
219	4,41
219,5	2,295
219,9	1,552
220,4	10,581
220,9	9,267
221,3	5,181
221,8	9,581
222,3	14,552
222,7	15,638
223,2	19,467
223,6	10,924
224,1	11,067
224,6	16,067
225	10,21
225,5	9,752
226	7,895
226,4	7,81
226,9	11,152
227,4	7,267
227,8	0,038
228,3	3,095
228,8	4,438
229,2	10,495
229,7	6,495
230,2	6,067
230,6	11,467
231,1	19,781
231,5	21,41
232	18,495
232,5	13,495
232,9	16,181
233,4	16,724
233,9	9,61
234,3	8,324
234,8	8,238
235,3	3,267
235,7	6,01
236,2	3,838
236,7	1,238
237,1	7,495
237,6	2,381
238,1	1,867
238,5	1,752
239	2,552
239,4	4,924
239,9	3,41
240,4	-1,162
240,8	4,352
241,3	3,524
241,8	9,724
242,2	4,638
242,7	2,41
243,2	3,152
243,6	-1,019
244,1	-0,762
244,6	0,924
245	3,352
245,5	5,267
245,9	1,352
246,4	4,61
246,9	13,638
247,3	10,21
247,8	6,581
248,3	7,61
248,7	8,181
249,2	12,352
249,7	9,238
250,1	5,552
250,6	6,838
251	8,981
251,5	6,981
252	5,267
252,4	8,381
252,9	5,752
253,4	2,695
253,8	0,781
254,3	0,267
254,8	0,61
255,2	-2,048
255,7	-3,219
256,1	-1,248
256,6	0,581
257,1	4,467
257,5	2,181
258	-1,448
258,5	-1,305
258,9	-4,305
259,4	-3,762
259,9	-1,162
260,3	-2,962
260,8	-2,733
261,2	-1,019
261,7	2,552
262,2	1,524
262,6	-0,333
263,1	3,181
263,6	2,724
264	5,838
264,5	9,552
264,9	6,838
265,4	8,867
265,9	9,81
266,3	11,038
266,8	11,781
267,3	10,067
267,7	6,067
268,2	7,238
268,7	8,838
269,1	9,581
269,6	2,667
270	3,752
270,5	3,01
271	3,867
271,4	2,524
271,9	-0,79
272,4	2,895
272,8	1,495
273,3	-0,648
273,7	2,124
274,2	-0,076
274,7	1,952
275,1	4,952
275,6	4,724
276,1	3,038
276,5	10,352
277	8,981
277,4	14,667
277,9	15,981
278,4	15,495
278,8	12,095
279,3	16,524
279,8	11,352
280,2	10,581
280,7	9,581
281,1	4,981
281,6	-0,276
282,1	-0,133
282,5	-0,505
283	-1,448
283,4	-2,79
283,9	-5,048
284,4	3,667
284,8	9,324
285,3	10,238
285,8	13,238
286,2	12,724
286,7	12,181
287,1	11,124
287,6	7,152
288,1	3,01
288,5	4,41
289	2,438
289,5	3,495
289,9	2,124
290,4	1,152
290,8	1,867
291,3	3,924
291,8	4,952
292,2	2,581
292,7	4,124
293,1	9,352
293,6	12,01
294,1	8,467
294,5	6,752
295	4,81
295,5	6,61
295,9	6,61
296,4	1,238
296,8	0,581
297,3	-0,076
297,8	-1,476
298,2	-1,476
298,7	-0,048
299,1	1,181
299,6	2,038
300,1	5,124
300,5	8,695
301	12,752
301,5	17,667
301,9	15,095
302,4	7,867
302,8	7,895
303,3	4,067
303,8	1,01
304,2	-0,248
304,7	-8,048
305,1	-12,676
305,6	-4,419
306,1	7,781
306,5	9,895
307	15,295
307,4	15,667
307,9	16,124
308,4	23,067
308,8	12,352
309,3	3,467
309,8	-1,133
310,2	-4,076
310,7	-6,79
311,1	-4,162
311,6	-5,933
312,1	1,924
312,5	3,867
313	4,352
313,4	4,981
313,9	8,381
314,4	9,638
314,8	4,181
315,3	0,41
315,7	-6,733
316,2	-6,705
316,7	-12,505
317,1	-7,19
317,6	-6,448
318	0,581
318,5	3,581
319	7,895
319,4	11,124
319,9	17,267
320,3	15,381
320,8	10,381
321,3	13,21
321,7	10,352
322,2	9,352
322,6	12,238
323,1	9,467
323,6	7,695
324	9,752
324,5	4,667
324,9	5,667
325,4	6,581
325,9	7,752
326,3	11,667
326,8	9,838
327,2	7,124
327,7	7,152
328,2	6,124
328,6	8,667
329,1	0,981
329,5	-1,79
330	-0,962
330,5	3,381
330,9	6,781
331,4	6,638
331,8	3,152
332,3	7,181
332,8	4,352
333,2	4,067
333,7	1,581
334,1	0,41
334,6	1,267
335,1	-0,019
335,5	-1,19
336	-2,533
336,4	-2,133
336,9	6,81
337,4	6,21
337,8	9,124
338,3	12,581
338,7	13,495
339,2	15,552
339,7	18,638
340,1	14,352
340,6	13,438
341	10,267
341,5	8,438
342	7,581
342,4	6,895
342,9	4,352
343,3	2,867
343,8	3,295
344,2	5,695
344,7	9,724
345,2	8,438
345,6	8,324
346,1	9,41
346,5	6,352
347	3,867
347,5	3,41
347,9	2,495
348,4	1,867
348,8	5,038
349,3	6,724
349,8	9,438
350,2	17,467
350,7	12,581
351,1	12,838
351,6	19,552
352	22,552
352,5	27,581
353	31,667
353,4	37,838
353,9	53,038
354,3	67,381
354,8	78,981
355,3	101,981
355,7	121,524
356,2	148,895
356,6	172,667
357,1	205,467
357,5	239,295
358	285,638
358,5	325,438
358,9	374,895
359,4	437,352
359,8	505,267
360,3	587,295
360,8	669,581
361,2	759,067
361,7	862,61
362,1	982,81
362,6	1101,495
363	1236,01
363,5	1373,895
364	1524,152
364,4	1674,752
364,9	1830,181
365,3	1976,724
365,8	2118,467
366,3	2252,61
366,7	2368,181
367,2	2474,324
367,6	2559,952
368,1	2631,695
368,5	2675,724
369	2699,752
369,5	2704,067
369,9	2682,81
370,4	2644,981
370,8	2591,181
371,3	2507,638
371,7	2422,581
372,2	2320,295
372,7	2212,01
373,1	2101,095
373,6	1977,495
374	1856,552
374,5	1734,21
374,9	1615,324
375,4	1499,695
375,9	1387,552
376,3	1275,41
376,8	1171,752
377,2	1082,467
377,7	999,21
378,2	912,181
378,6	836,124
379,1	763,438
379,5	707,152
380	651,695
380,4	592,352
380,9	538,724
381,4	494,981
381,8	460,895
382,3	426,81
382,7	393,61
383,2	365,41
383,6	338,124
384,1	319,952
384,6	300,095
385	277,81
385,5	257,867
385,9	241,238
386,4	223,381
386,8	208,438
387,3	187,352
387,7	171,695
388,2	161,152
388,7	150,067
389,1	139,352
389,6	133,01
390	122,981
390,5	119,924
390,9	112,724
391,4	103,01
391,9	94,581
392,3	87,124
392,8	79,295
393,2	72,324
393,7	68,952
394,1	62,781
394,6	58,21
395,1	58,924
395,5	54,324
396	51,752
396,4	50,152
396,9	44,238
397,3	48,152
397,8	47,667
398,2	43,61
398,7	43,981
399,2	42,467
399,6	42,867
400,1	43,41
400,5	32,781
401	34,638
401,4	26,067
401,9	26,552
402,4	26,352
402,8	23,352
403,3	27,838
403,7	31,867
404,2	31,467
404,6	40,695
405,1	36,267
405,5	33,038
406	34,524
406,5	28,581
406,9	28,067
407,4	24,324
407,8	22,067
408,3	24,867
408,7	25,381
409,2	31,638
409,6	37,467
410,1	44,924
410,6	52,238
411	52,524
411,5	50,324
411,9	54,724
412,4	52,638
412,8	52,267
413,3	51,838
413,7	53,667
414,2	55,61
414,7	62,638
415,1	72,695
415,6	77,124
416	76,752
416,5	80,495
416,9	78,524
417,4	86,267
417,8	94,01
418,3	94,638
418,8	95,41
419,2	99,381
419,7	104,524
420,1	108,924
420,6	109,724
421	106,038
421,5	105,638
421,9	108,524
422,4	112,095
422,8	109,638
423,3	109,552
423,8	111,695
424,2	113,867
424,7	113,524
425,1	114,895
425,6	120,981
426	122,838
426,5	126,952
426,9	126,495
427,4	125,981
427,9	125,01
428,3	126,352
428,8	125,181
429,2	126,752
429,7	127,067
430,1	129,924
430,6	134,41
431	137,467
431,5	142,752
431,9	140,724
432,4	142,752
432,8	151,124
433,3	153,752
433,8	155,695
434,2	164,495
434,7	169,438
435,1	176,581
435,6	182,552
436	182,867
436,5	190,81
436,9	196,952
437,4	204,352
437,8	208,952
438,3	219,981
438,8	229,038
439,2	236,667
439,7	246,067
440,1	255,324
440,6	262,724
441	272,095
441,5	282,01
441,9	291,552
442,4	296,752
442,8	303,838
443,3	319,067
443,7	330,61
444,2	342,095
444,7	353,581
445,1	372,552
445,6	393,124
446	406,81
446,5	414,124
446,9	423,924
447,4	437,895
447,8	451,181
448,3	458,152
448,7	478,01
449,2	496,867
449,6	520,552
450,1	537,981
450,6	561,924
451	582,095
451,5	604,524
451,9	624,952
452,4	648,781
452,8	663,838
453,3	691,124
453,7	704,924
454,2	730,124
454,6	751,581
455,1	766,752
455,5	781,638
456	810,152
456,4	827,695
456,9	853,21
457,3	868,438
457,8	881,81
458,3	910,038
458,7	935,467
459,2	954,352
459,6	979,01
460,1	1004,095
460,5	1026,895
461	1064,095
461,4	1083,467
461,9	1105,924
462,3	1134,552
462,8	1161,181
463,2	1183,238
463,7	1212,81
464,1	1240,495
464,6	1272,238
465	1300,152
465,5	1328,495
466	1355,552
466,4	1383,238
466,9	1412,152
467,3	1434,067
467,8	1461,924
468,2	1492,752
468,7	1517,124
469,1	1548,752
469,6	1576,038
470	1598,695
470,5	1624,038
470,9	1646,067
471,4	1671,952
471,8	1697,981
472,3	1720,181
472,7	1751,267
473,2	1782,438
473,6	1806,581
474,1	1834,038
474,5	1856,124
475	1882,752
475,4	1905,381
475,9	1921,667
476,4	1940,067
476,8	1966,267
477,3	1984,152
477,7	2006,124
478,2	2021,067
478,6	2038,01
479,1	2055,01
479,5	2073,924
480	2086,81
480,4	2104,924
480,9	2115,067
481,3	2132,438
481,8	2146,695
482,2	2158,781
482,7	2173,095
483,1	2185,267
483,6	2197,267
484	2207,552
484,5	2216,695
484,9	2226,381
485,4	2237,924
485,8	2245,038
486,3	2251,867
486,7	2256,124
487,2	2266,695
487,6	2274,552
488,1	2278,752
488,5	2278,667
489	2279,61
489,4	2283,21
489,9	2279,752
490,4	2279,267
490,8	2274,524
491,3	2276,124
491,7	2276,067
492,2	2276,552
492,6	2276,838
493,1	2274,181
493,5	2264,524
494	2259,752
494,4	2252,095
494,9	2241,295
495,3	2231,638
495,8	2216,752
496,2	2215,295
496,7	2208,495
497,1	2202,324
497,6	2192,81
498	2195,638
498,5	2187,41
498,9	2175,524
499,4	2160,552
499,8	2152,01
500,3	2135,924
500,7	2123,324
501,2	2100,552
501,6	2079,61
502,1	2071,61
502,5	2060,381
503	2047,267
503,4	2035,01
503,9	2020,095
504,3	2004,952
504,8	1997,124
505,2	1975,467
505,7	1956,238
506,1	1943,552
506,6	1924,981
507	1907,667
507,5	1895,495
507,9	1879,495
508,4	1871,524
508,8	1854,467
509,3	1830,695
509,7	1812,781
510,2	1797,152
510,6	1775,267
511,1	1753,21
511,5	1730,724
512	1713,352
512,4	1698,81
512,9	1677,21
513,3	1659,181
513,8	1639,724
514,2	1619,838
514,7	1602,638
515,1	1584,981
515,6	1566,695
516	1552,238
516,5	1536,495
516,9	1520,924
517,4	1508,867
517,8	1493,238
518,3	1477,838
518,7	1458,552
519,2	1443,095
519,6	1424,467
520,1	1414,895
520,5	1394,838
521	1374,552
521,4	1359,324
521,9	1344,552
522,3	1330,381
522,8	1312,638
523,2	1293,838
523,7	1271,267
524,1	1260,152
524,6	1242,352
525	1225,01
525,5	1206,181
525,9	1192,324
526,4	1170,038
526,8	1163,952
527,3	1147,038
527,7	1132,381
528,2	1119,267
528,6	1106,095
529,1	1093,552
529,5	1088,724
530	1071,981
530,4	1062,667
530,9	1048,124
531,3	1041,381
531,8	1029,61
532,2	1016,781
532,6	1002,638
533,1	993,324
533,5	976,724
534	962,695
534,4	948,895
534,9	936,124
535,3	924,381
535,8	914,038
536,2	907,095
536,7	897,81
537,1	892,295
537,6	879,41
538	872,524
538,5	870,038
538,9	856,981
539,4	848,838
539,8	835,667
540,3	823,152
540,7	814,781
541,2	802,667
541,6	788,181
542,1	782,21
542,5	770,781
543	766,181
543,4	758,495
543,9	749,095
544,3	743,352
544,8	730,61
545,2	720,61
545,7	715,952
546,1	708,152
546,5	705,952
547	700,524
547,4	692,01
547,9	684,124
548,3	680,867
548,8	670,61
549,2	660,781
549,7	653,867
550,1	650,638
550,6	649,524
551	646,81
551,5	637,924
551,9	626,924
552,4	622,181
552,8	616,152
553,3	602,924
553,7	591,095
554,2	588,181
554,6	581,41
555,1	581,124
555,5	575,81
555,9	567,61
556,4	563,095
556,8	560,581
557,3	553,01
557,7	553,181
558,2	545,695
558,6	544,952
559,1	539,552
559,5	536,124
560	531,638
560,4	525,781
560,9	514,838
561,3	509,895
561,8	502,552
562,2	499,61
562,7	497,01
563,1	497,352
563,6	493,01
564	490,267
564,4	487,81
564,9	481,838
565,3	478,324
565,8	472,21
566,2	469,21
566,7	469,381
567,1	470,952
567,6	470,352
568	469,467
568,5	467,267
568,9	465,038
569,4	457,067
569,8	454,238
570,3	451,41
570,7	445,124
571,1	446,581
571,6	445,838
572	449,324
572,5	446,838
572,9	442,638
573,4	439,095
573,8	440,638
574,3	433,01
574,7	425,724
575,2	419,924
575,6	412,038
576,1	409,924
576,5	411,067
576,9	403,095
577,4	401,267
577,8	396,524
578,3	389,495
578,7	390,61
579,2	391,638
579,6	381,781
580,1	377,552
580,5	378,01
581	379,61
581,4	377,21
581,9	373,41
582,3	369,095
582,7	372,695
583,2	370,838
583,6	363,295
584,1	364,667
584,5	364,095
585	366,495
585,4	361,781
585,9	354,352
586,3	353,924
586,8	356,438
587,2	345,981
587,6	346,952
588,1	344,638
588,5	343,752
589	345,667
589,4	344,067
589,9	343,01
590,3	343,038
590,8	338,924
591,2	336,61
591,7	336,667
592,1	334,038
592,5	334,267
593	330,524
593,4	327,895
593,9	327,01
594,3	324,752
594,8	320,124
595,2	318,181
595,7	318,038
596,1	311,981
596,6	315,267
597	315,095
597,4	316,152
597,9	315,238
598,3	317,152
598,8	313,238
599,2	316,952
599,7	315,781
600,1	306,924
600,6	299,952
601	297,124
601,4	299,21
601,9	299,981
602,3	296,124
602,8	295,667
603,2	299,152
603,7	302,524
604,1	302,352
604,6	294,181
605	288,01
605,4	288,152
605,9	280,895
606,3	279,495
606,8	272,781
607,2	269,81
607,7	264,095
608,1	267,895
608,6	270,867
609	275,924
609,4	276,552
609,9	277,095
610,3	276,438
610,8	279,667
611,2	278,067
611,7	270,638
612,1	265,124
612,6	263,095
613	265,981
613,4	265,61
613,9	263,524
614,3	259,552
614,8	263,61
615,2	261,838
615,7	259,352
616,1	254,095
616,6	249,61
617	250,381
617,4	249,095
617,9	244,267
618,3	241,352
618,8	243,752
619,2	242,01
619,7	245,952
620,1	242,181
620,5	245,495
621	240,867
621,4	248,21
621,9	240,838
622,3	241,895
622,8	238,781
623,2	240,124
623,6	236,467
624,1	240,467
624,5	234,295
625	240,381
625,4	240,495
625,9	237,638
626,3	235,095
626,8	230,238
627,2	227,895
627,6	221,552
628,1	214,895
628,5	215,352
629	215,238
629,4	213,495
629,9	214,981
630,3	211,095
630,7	212,181
631,2	211,095
631,6	205,381
632,1	202,924
632,5	200,067
633	197,695
633,4	197,638
633,8	196,152
634,3	195,981
634,7	194,124
635,2	192,495
635,6	192,095
636,1	192,295
636,5	187,952
636,9	185,867
637,4	185,695
637,8	182,952
638,3	180,181
638,7	175,438
639,2	168,524
639,6	169,524
640	171,238
640,5	169,181
640,9	169,495
641,4	174,552
641,8	177,724
642,2	180,238
642,7	188,152
643,1	187,21
643,6	183,924
644	182,467
644,5	180,724
644,9	181,038
645,3	181,352
645,8	171,581
646,2	172,41
646,7	177,41
647,1	178,467
647,6	178,981
648	178,324
648,4	174,895
648,9	178,81
649,3	175,981
649,8	171,924
650,2	172,81
650,6	167,895
651,1	161,695
651,5	165,781
652	161,667
652,4	157,752
652,9	157,895
653,3	152,838
653,7	151,895
654,2	154,038
654,6	147,324
655,1	148,095
655,5	158,267
655,9	155,438
656,4	154,867
656,8	156,295
657,3	159,81
657,7	163,781
658,2	162,638
658,6	154,038
659	156,41
659,5	156,267
659,9	154,467
660,4	155,324
660,8	149,695
661,2	147,81
661,7	148,724
662,1	146,867
662,6	147,381
663	145,352
663,4	136,667
663,9	139,838
664,3	139,352
664,8	134,952
665,2	130,181
665,6	129,895
666,1	129,295
666,5	129,438
667	128,695
667,4	122,581
667,9	123,867
668,3	126,581
668,7	122,695
669,2	125,924
669,6	127,638
670,1	127,21
670,5	130,695
670,9	131,438
671,4	128,181
671,8	133,781
672,3	131,324
672,7	132,667
673,1	125,152
673,6	123,41
674	123,752
674,5	119,695
674,9	112,352
675,3	109,181
675,8	109,124
676,2	113,638
676,7	112,895
677,1	109,752
677,5	110,01
678	113,438
678,4	115,667
678,9	111,038
679,3	108,581
679,7	109,81
680,2	107,21
680,6	105,467
681,1	101,181
681,5	103,867
681,9	106,038
682,4	110,295
682,8	111,41
683,3	113,952
683,7	119,81
684,1	124,41
684,6	116,981
685	113,181
685,5	107,267
685,9	99,21
686,3	95,667
686,8	90,295
687,2	88,152
687,7	86,467
688,1	84,781
688,5	88,01
689	92,181
689,4	90,038
689,9	91,295
690,3	86,895
690,7	89,324
691,2	90,267
691,6	90,41
692	89,781
692,5	93,981
692,9	94,238
693,4	95,495
693,8	96,324
694,2	92,267
694,7	88,752
695,1	86,781
695,6	85,467
696	86,867
696,4	85,01
696,9	78,781
697,3	76,781
697,8	75,581
698,2	73,038
698,6	73,524
699,1	73,895
699,5	75,667
699,9	75,067
700,4	75,752
700,8	78,124
701,3	80,295
701,7	77,238
702,1	76,067
702,6	75,152
703	78,81
703,5	81,067
703,9	80,038
704,3	82,552
704,8	78,152
705,2	76,895
705,6	75,181
706,1	73,495
706,5	73,638
707	73,581
707,4	72,981
707,8	71,952
708,3	69,952
708,7	70,752
709,2	68,61
709,6	65,838
710	68,324
710,5	68,095
710,9	74,724
711,3	74,267
711,8	75,41
712,2	80,01
712,7	78,267
713,1	75,867
713,5	74,352
714	75,667
714,4	74,181
714,8	74,181
715,3	67,981
715,7	76,667
716,2	74,752
716,6	74,41
717	68,181
717,5	65,552
717,9	65,295
718,3	64,181
718,8	56,438
719,2	55,438
719,7	54,238
720,1	58,21
720,5	67,295
721	61,838
721,4	64,781
721,8	70,695
722,3	67,324
722,7	74,352
723,2	68,867
723,6	57,524
724	54,895
724,5	53,867
724,9	48,752
725,3	50,41
725,8	41,981
726,2	41,352
726,7	48,924
727,1	53,638
727,5	55,124
728	54,152
728,4	55,352
728,8	53,695
729,3	53,181
729,7	46,81
730,1	46,467
730,6	46,552
731	45,067
731,5	43,895
731,9	43,724
732,3	48,838
732,8	53,295
733,2	52,21
733,6	48,467
734,1	51,152
734,5	50,124
734,9	54,895
735,4	52,152
735,8	44,895
736,3	48,267
736,7	49,267
737,1	48,181
737,6	48,752
738	41,81
738,4	40,524
738,9	48,381
739,3	44,838
739,7	46,238
740,2	43,01
740,6	43,181
741,1	50,667
741,5	47,638
741,9	46,038
742,4	49,038
742,8	52,267
743,2	50,667
743,7	50,038
744,1	45,981
744,5	42,695
745	39,981
745,4	35,495
745,8	31,467
746,3	34,324
746,7	30,952
747,2	31,124
747,6	38,867
748	43,581
748,5	49,295
748,9	46,324
749,3	46,838
749,8	49,952
750,2	49,181
750,6	50,781
751,1	49,467
751,5	47,038
751,9	49,81
752,4	52,152
752,8	51,695
753,3	47,095
753,7	47,095
754,1	43,695
754,6	37,01
755	32,724
755,4	28,667
755,9	29,124
756,3	30,067
756,7	25,495
757,2	26,895
757,6	31,867
758	36,352
758,5	38,524
758,9	39,667
759,3	42,41
759,8	43,952
760,2	45,667
760,6	49,238
761,1	46,067
761,5	46,81
761,9	42,924
762,4	42,095
762,8	39,638
763,3	36,695
763,7	34,095
764,1	36,467
764,6	35,124
765	39,124
765,4	42,01
765,9	45,495
766,3	47,124
766,7	42,752
767,2	38,295
767,6	40,124
768	37,095
768,5	32,467
768,9	27,838
769,3	27,638
769,8	24,038
770,2	30,01
770,6	26,867
771,1	30,724
771,5	31,381
771,9	33,838
772,4	32,638
772,8	34,41
773,2	32,495
773,7	32,724
774,1	32,324
774,5	28,952
775	29,781
775,4	31,867
775,8	31,924
776,3	28,381
776,7	31,067
777,1	28,352
777,6	33,095
778	32,01
778,4	29,752
778,9	32,41
779,3	33,81
779,7	32,352
780,2	30,181
780,6	27,352
781	27,238
781,5	20,952
781,9	21,495
782,3	23,924
782,8	25,038
783,2	25,638
783,6	29,695
784,1	28,924
784,5	31,467
784,9	30,524
785,4	28,21
785,8	25,495
786,2	25,038
786,7	23,124
787,1	23,495
787,5	23,867
788	25,295
788,4	28,667
788,8	27,038
789,3	28,638
789,7	29,181
790,1	28,21
790,6	30,238
791	22,552
791,4	24,695
791,9	25,724
792,3	22,067
792,7	24,181
793,2	22,267
793,6	23,21
794	34,095
794,5	26,152
794,9	28,552
795,3	35,295
795,8	31,381
796,2	31,867
796,6	32,467
797,1	28,924
797,5	28,438
797,9	24,181
798,4	19,324
798,8	19,552
799,2	20,067
799,7	19,124
800,1	14,381
800,5	20,867
801	22,61
801,4	22,752
801,8	20,21
802,2	18,41
802,7	16,352
803,1	18,495
803,5	15,01
804	12,095
804,4	11,667
804,8	15,295
805,3	19,067
805,7	19,124
806,1	19,467
806,6	18,267
807	21,41
807,4	21,381
807,9	15,038
808,3	13,781
808,7	14,895
809,2	18,667
809,6	22,552
810	19,867
810,4	20,324
810,9	25,038
811,3	27,295
811,7	26,581
812,2	27,781
812,6	22,152
813	25,238
813,5	25,524
813,9	28,095
814,3	26,095
814,8	24,838
815,2	18,752
815,6	19,495
816,1	20,952
816,5	19,381
816,9	18,038
817,3	16,552
817,8	21,724
818,2	24,638
818,6	24,781
819,1	22,352
819,5	24,381
819,9	24,21
820,4	23,467
820,8	17,61
821,2	12,895
821,7	14,895
822,1	18,295
822,5	18,581
822,9	17,781
823,4	17,238
823,8	19,495
824,2	20,324
824,7	16,667
825,1	9,581
825,5	7,781
826	2,124
826,4	2,324
826,8	1,41
827,3	7,752
827,7	8,095
828,1	12,038
828,5	11,495
829	11,695
829,4	15,238
829,8	11,352
830,3	9,01
830,7	8,41
831,1	8,981
831,6	10,124
832	14,781
832,4	9,752
832,8	13,095
833,3	11,524
833,7	11,781
834,1	7,895
834,6	8,952
835	11,61
835,4	15,438
835,8	13,181
836,3	13,095
836,7	13,581
837,1	16,467
837,6	18,638
838	16,152
838,4	15,581
838,9	19,581
839,3	18,952
839,7	21,467
840,1	16,895
840,6	12,524
841	13,267
841,4	14,267
841,9	15,552
842,3	13,581
842,7	15,552
843,1	19,21
843,6	20,981
844	20,438
844,4	25,667
844,9	23,21
845,3	23,467
845,7	20,581
846,2	18,124
846,6	18,095
847	20,381
847,4	15,324
847,9	17,695
848,3	17,61
848,7	19,61
849,2	21,981
849,6	17,41
850	19,552
850,4	15,838
850,9	15,724
851,3	14,838
851,7	13,581
852,2	12,781
852,6	20,295
853	15,01
853,4	16,781
853,9	14,238
854,3	16,038
854,7	18,038
855,2	18,524
855,6	13,61
856	12,838
856,4	9,152
856,9	6,267
857,3	12,01
857,7	12,81
858,2	16,638
858,6	18,324
859	19,152
859,4	24,695
859,9	24,61
860,3	15,981
860,7	11,067
861,1	10,552
861,6	9,038
862	8,895
862,4	6,238
862,9	8,524
863,3	14,01
863,7	12,238
864,1	10,41
864,6	6,438
865	5,638
865,4	8,924
865,9	9,781
866,3	4,124
866,7	6,781
867,1	5,095
867,6	10,067
868	8,524
868,4	4,581
868,8	3,838
869,3	7,838
869,7	11,552
870,1	7,952
870,6	3,295
871	-76,219
871,4	-70,848
871,8	-77,19
872,3	-75,019
872,7	-75,219
873,1	-70,419
873,5	-63,619
874	16,81
874,4	15,295
874,8	18,981
875,3	18,21
875,7	13,324
876,1	12,981
876,5	10,867
877	9,952
877,4	3,038
877,8	9,267
878,2	12,952
878,7	18,295
879,1	20,581
879,5	22,152
879,9	24,695
880,4	28,924
880,8	26,495
881,2	17,81
881,7	13,381
882,1	9,324
882,5	4,067
882,9	3,952
883,4	6,01
883,8	7,352
884,2	9,181
884,6	7,181
885,1	8,467
885,5	9,695
885,9	11,181
886,3	8,895
886,8	3,81
887,2	5,61
887,6	8,181
888	6,867
888,5	9,295
888,9	5,181
889,3	2,924
889,8	2,952
890,2	1,667
890,6	0,924
891	3,838
891,5	0,038
891,9	2,495
892,3	3,752
892,7	7,781
893,2	8,81
893,6	8,295
894	7,61
894,4	8,41
894,9	7,21
895,3	8,495
895,7	8,295
896,1	8,067
896,6	6,667
897	9,895
897,4	11,467
897,8	16,438
898,3	15,695
898,7	11,095
899,1	7,752
899,5	9,638
900	3,838
900,4	4,552
900,8	0,867
901,2	-2,619
901,7	0,438
902,1	4,524
902,5	5,552
902,9	5,238
903,4	7,695
903,8	6,495
904,2	9,352
904,6	12,324
905,1	12,667
905,5	13,581
905,9	16,038
906,3	16,467
906,8	16,21
907,2	16,781
907,6	12,695
908	14,752
908,5	8,781
908,9	5,495
909,3	2,152
909,7	4,41
910,2	5,752
910,6	11,581
911	3,61
911,4	6,638
911,9	8,267
912,3	5,352
912,7	8,867
913,1	11,324
913,6	5,295
914	10,552
914,4	9,238
914,8	12,181
915,3	16,838
915,7	11,895
916,1	6,781
916,5	10,21
916,9	12,21
917,4	15,381
917,8	12,438
918,2	7,238
918,6	6,095
919,1	6,21
919,5	7,552
919,9	1,581
920,3	-0,476
920,8	1,295
921,2	3,381
921,6	1,267
922	3,924
922,5	-0,762
922,9	4,752
923,3	5,238
923,7	5,067
924,2	1,667
924,6	7,295
925	5,552
925,4	6,895
925,8	5,724
926,3	7,724
926,7	5,067
927,1	7,095
927,5	6,867
928	5,095
928,4	1,724
928,8	3,21
929,2	-0,419
929,7	1,324
930,1	4,867
930,5	2,381
930,9	8,095
931,3	13,952
931,8	10,152
932,2	13,552
932,6	12,667
933	7,981
933,5	10,438
933,9	10,695
934,3	9,581
934,7	9,152
935,2	7,752
935,6	7,181
936	8,781
936,4	10,981
936,8	5,867
937,3	4,41
937,7	8,81
938,1	7,381
938,5	7,352
939	11,352
939,4	8,667
939,8	8,352
940,2	5,61
940,6	2,181
941,1	4,238
941,5	8,581
941,9	7,867
942,3	7,41
942,8	11,352
943,2	13,124
943,6	14,438
944	17,667
944,4	17,124
944,9	11,381
945,3	11,524
945,7	6,867
946,1	4,21
946,6	0,295
947	-2,819
947,4	-3,39
947,8	-1,133
948,2	-4,276
948,7	1,152
949,1	5,981
949,5	9,41
949,9	8,981
950,3	6,724
950,8	6,638
951,2	7,667
951,6	2,238
952	1,638
952,5	-2,533
952,9	-4,162
953,3	-3,076
953,7	-1,533
954,1	-1,99
954,6	3,981
955	4,438
955,4	6,267
955,8	11,352
956,2	14,124
956,7	12,895
957,1	9,924
957,5	5,838
957,9	4,724
958,3	3,324
958,8	4,352
959,2	6,524
959,6	9,867
960	11,524
960,5	19,152
960,9	21,324
961,3	24,581
961,7	20,181
962,1	17,038
962,6	16,067
963	20,095
963,4	11,01
963,8	8,124
964,2	11,21
964,7	11,695
965,1	12,695
965,5	13,124
965,9	10,381
966,3	12,324
966,8	11,952
967,2	9,467
967,6	11,267
968	6,295
968,4	3,867
968,9	3,981
969,3	10,381
969,7	7,581
970,1	9,124
970,5	6,267
971	11,01
971,4	12,238
971,8	12,467
972,2	9,238
972,6	12,381
973,1	8,181
973,5	11,152
973,9	9,01
974,3	8,981
974,7	14,924
975,2	12,152
975,6	11,667
976	16,095
976,4	11,61
976,8	10,724
977,3	6,352
977,7	-0,676
978,1	1,295
978,5	0,124
978,9	-4,076
979,4	1,895
979,8	0,581
980,2	5,41
980,6	7,467
981	6,352
981,5	9,038
981,9	11,467
982,3	6,352
982,7	7,981
983,1	4,867
983,6	2,924
984	1,581
984,4	4,067
984,8	3,152
985,2	3,067
985,6	0,181
986,1	4,21
986,5	6,867
986,9	4,038
987,3	2,095
987,7	2,381
988,2	1,61
988,6	2,495
989	0,381
989,4	-0,533
989,8	2,638
990,3	0,324
990,7	-1,562
991,1	-0,019
991,5	4,838
991,9	6,01
992,3	6,924
992,8	6,695
993,2	6,895
993,6	7,895
994	8,21
994,4	6,152
994,9	6,238
995,3	5,067
995,7	2,581
996,1	3,324
996,5	2,61
996,9	-1,019
997,4	1,724
997,8	-3,219
998,2	-4,019
998,6	-7,076
999	-3,533
999,5	-1,99
999,9	-0,219
1000,3	-5,19
1000,7	-0,79
1001,1	-2,705
1001,5	2,781
1002	2,352
1002,4	3,524
1002,8	5,524
1003,2	11,41
1003,6	13,41
1004	21,267
1004,5	16,467
1004,9	16,124
1005,3	11,981
1005,7	11,267
1006,1	4,981
1006,6	-0,819
1007	-3,905
1007,4	0,095
1007,8	0,238
1008,2	1,895
1008,6	7,695
1009,1	8,21
1009,5	15,752
1009,9	15,438
1010,3	18,81
1010,7	17,724
1011,1	20,438
1011,6	18,038
1012	22,752
1012,4	16,067
1012,8	14,867
1013,2	14,038
1013,6	14,181
1014,1	14,895
1014,5	11,524
1014,9	8,667
1015,3	9,381
1015,7	9,181
1016,1	7,238
1016,6	3,61
1017	4,924
1017,4	7,21
1017,8	4,695
1018,2	9,695
1018,6	8,952
1019,1	9,267
1019,5	7,924
1019,9	2,21
1020,3	1,638
1020,7	4,581
1021,1	-0,248
1021,6	-0,648
1022	4,124
1022,4	8,495
1022,8	10,41
1023,2	13,552
1023,6	12,095
1024,1	19,724
1024,5	20,752
1024,9	15,238
1025,3	15,381
1025,7	16,924
1026,1	15,438
1026,6	16,41
1027	10,295
1027,4	12,381
1027,8	12,124
1028,2	6,552
1028,6	7,495
1029	6,038
1029,5	7,067
1029,9	4,152
1030,3	-0,505
1030,7	1,124
1031,1	7,61
1031,5	1,067
1032	-1,762
1032,4	1,267
1032,8	3,838
1033,2	7,41
1033,6	5,924
1034	6,067
1034,4	7,552
1034,9	9,61
1035,3	1,467
1035,7	3,952
1036,1	1,81
1036,5	-3,276
1036,9	-8,048
1037,4	-2,076
1037,8	-8,705
1038,2	-5,59
1038,6	-4,219
1039	-1,476
1039,4	7,838
1039,8	6,61
1040,3	7,124
1040,7	12,381
1041,1	11,552
1041,5	7,895
1041,9	5,695
1042,3	3,581
1042,7	6,467
1043,2	1,524
1043,6	0,524
1044	2,21
1044,4	5,038
1044,8	5,867
1045,2	2,095
1045,6	4,552
1046,1	5,41
1046,5	7,524
1046,9	2,152
1047,3	-0,99
1047,7	-4,39
1048,1	-2,248
1048,5	-2,476
1049	-0,905
1049,4	1,095
1049,8	7,61
1050,2	8,067
1050,6	19,352
1051	20,41
1051,4	16,724
1051,9	12,352
1052,3	16,81
1052,7	12,524
1053,1	11,981
1053,5	7,781
1053,9	6,381
1054,3	4,752
1054,8	12,581
1055,2	9,467
1055,6	12,038
1056	12,61
1056,4	8,695
1056,8	8,381
1057,2	11,352
1057,6	6,41
1058,1	2,095
1058,5	-2,876
1058,9	-1,105
1059,3	1,867
1059,7	1,01
1060,1	4,695
1060,5	7,038
1061	13,324
1061,4	20,495
1061,8	22,524
1062,2	17,038
1062,6	17,467
1063	16,067
1063,4	13,81
1063,8	3,924
1064,3	-1,362
1064,7	-9,79
1065,1	-8,676
1065,5	-11,705
1065,9	-13,819
1066,3	-12,39
1066,7	-9,762
1067,1	-11,19
1067,6	-3,305
1068	-5,276
1068,4	-1,733
1068,8	0,838
1069,2	0,295
1069,6	0,952
1070	5,867
1070,4	3,552
1070,9	8,581
1071,3	11,724
1071,7	8,238
1072,1	8,095
1072,5	3,752
1072,9	1,067
1073,3	-0,99
1073,7	-5,048
1074,2	-4,248
1074,6	-2,076
1075	-3,762
1075,4	3,724
1075,8	5,924
1076,2	11,81
1076,6	16,038
1077	12,552
1077,5	13,638
1077,9	12,724
1078,3	8,324
1078,7	6,067
1079,1	2,21
1079,5	0,295
1079,9	4,238
1080,3	4,295
1080,7	5,295
1081,2	9,838
1081,6	11,41
1082	10,581
1082,4	13,267
1082,8	11,438
1083,2	8,067
1083,6	9,724
1084	6,095
1084,5	8,952
1084,9	6,667
1085,3	1,638
1085,7	2,095
1086,1	3,467
1086,5	3,552
1086,9	8,067
1087,3	5,724
1087,7	6,21
1088,2	6,724
1088,6	4,581
1089	5,781
1089,4	3,438
1089,8	1,724
1090,2	2,467
1090,6	3,81
1091	8,524
1091,4	9,21
1091,9	7,267
1092,3	11,01
1092,7	7,81
1093,1	7,581
1093,5	9,952
1093,9	6,524
1094,3	11,21
1094,7	9,438
1095,1	9,895
1095,5	14,295
1096	12,638
1096,4	10,41
1096,8	12,924
1097,2	7,067
1097,6	14,438
1098	10,895
1098,4	9,124
1098,8	11,952
1099,2	19,21
1099,6	16,867
1100,1	16,724
1100,5	10,152
1100,9	12,781
1101,3	11,781
1101,7	7,295
1102,1	3,324
1102,5	2,81
1102,9	4,01
1103,3	9,295
1103,7	7,295
1104,2	7,61
1104,6	11,638
1105	7,524
1105,4	9,924
1105,8	8,238
1106,2	4,095
1106,6	3,381
1107	2,981
1107,4	1,033
1107,8	2,547
1108,3	-0,633
