Data from Subt2_315.txt Node
Date: Sat Aug 26 19:15:53 MSK 2023
User: vat
Spectrometer: MAYP114033
Trigger mode: 0
Integration Time (sec): 1,000000E0
Scans to average: 5
Electric dark correction enabled: true
Nonlinearity correction enabled: false
Boxcar width: 3
XAxis mode: Wavelengths
Number of Pixels in Spectrum: 2068
>>>>>Begin Spectral Data<<<<<
199,4	-0,383
199,9	0,647
200,4	2,867
200,8	4,367
201,3	2,052
201,8	4,595
202,2	2,51
202,7	3,595
203,2	3,395
203,6	0,995
204,1	0,452
204,6	1,824
205	0,995
205,5	0,881
206	3,881
206,4	3,338
206,9	4,852
207,4	2,538
207,8	2,538
208,3	2,281
208,8	8,31
209,2	5,51
209,7	7,395
210,2	6,767
210,6	8,795
211,1	11,567
211,5	10,281
212	6,052
212,5	7,624
212,9	5,081
213,4	3,11
213,9	3,595
214,3	2,51
214,8	3,652
215,3	8,738
215,7	10,338
216,2	12,595
216,7	14,167
217,1	15,738
217,6	18,881
218,1	19,881
218,5	13,081
219	6,081
219,5	8,138
219,9	8,252
220,4	15,224
220,9	13,738
221,3	15,824
221,8	19,624
222,3	23,081
222,7	18,767
223,2	17,252
223,6	4,338
224,1	4,395
224,6	2,395
225	1,881
225,5	1,91
226	4,367
226,4	10,138
226,9	14,11
227,4	13,51
227,8	8,167
228,3	6,481
228,8	4,995
229,2	4,624
229,7	3,224
230,2	7,081
230,6	5,681
231,1	15,367
231,5	15,338
232	19,967
232,5	18,681
232,9	18,367
233,4	15,281
233,9	15,224
234,3	11,995
234,8	14,281
235,3	12,138
235,7	17,595
236,2	15,967
236,7	15,281
237,1	15,338
237,6	9,052
238,1	6,595
238,5	2,024
239	1,081
239,4	2,852
239,9	3,91
240,4	8,538
240,8	15,567
241,3	14,91
241,8	15,852
242,2	11,71
242,7	9,11
243,2	11,738
243,6	4,024
244,1	2,681
244,6	4,11
245	4,852
245,5	6,167
245,9	7,052
246,4	1,252
246,9	6,424
247,3	5,595
247,8	9,195
248,3	10,795
248,7	13,167
249,2	15,624
249,7	20,31
250,1	21,795
250,6	22,738
251	22,71
251,5	23,081
252	21,824
252,4	22,11
252,9	17,167
253,4	11,681
253,8	7,881
254,3	6,767
254,8	7,652
255,2	7,567
255,7	5,452
256,1	8,338
256,6	14,538
257,1	16,595
257,5	10,767
258	6,71
258,5	3,995
258,9	3,052
259,4	2,824
259,9	-2,49
260,3	-2,376
260,8	0,652
261,2	5,224
261,7	7,367
262,2	2,538
262,6	3,51
263,1	10,824
263,6	13,281
264	16,595
264,5	20,31
264,9	17,91
265,4	23,567
265,9	24,281
266,3	22,31
266,8	23,595
267,3	18,024
267,7	12,024
268,2	10,852
268,7	11,938
269,1	5,395
269,6	2,71
270	3,081
270,5	2,852
271	4,252
271,4	7,852
271,9	3,138
272,4	10,51
272,8	10,452
273,3	5,738
273,7	13,367
274,2	14,138
274,7	10,852
275,1	12,167
275,6	11,31
276,1	8,624
276,5	9,738
277	4,938
277,4	5,538
277,9	13,624
278,4	15,652
278,8	15,395
279,3	19,395
279,8	17,995
280,2	18,995
280,7	21,31
281,1	14,852
281,6	14,967
282,1	15,052
282,5	12,71
283	15,338
283,4	15,081
283,9	13,938
284,4	19,11
284,8	19,795
285,3	14,767
285,8	17,567
286,2	13,967
286,7	12,995
287,1	8,938
287,6	3,995
288,1	0,081
288,5	2,424
289	1,338
289,5	4,567
289,9	5,452
290,4	9,624
290,8	8,481
291,3	10,167
291,8	10,881
292,2	8,71
292,7	12,281
293,1	7,424
293,6	8,281
294,1	12,138
294,5	15,91
295	15,481
295,5	18,71
295,9	15,481
296,4	20,595
296,8	14,138
297,3	9,395
297,8	3,252
298,2	3,367
298,7	2,481
299,1	0,938
299,6	-1,462
300,1	-1,176
300,5	3,938
301	6,71
301,5	12,195
301,9	9,481
302,4	8,338
302,8	11,395
303,3	13,224
303,8	9,167
304,2	7,138
304,7	3,452
305,1	0,224
305,6	3,395
306,1	7,624
306,5	9,281
307	13,852
307,4	16,024
307,9	16,681
308,4	23,081
308,8	20,11
309,3	13,852
309,8	12,938
310,2	13,881
310,7	11,024
311,1	10,024
311,6	6,881
312,1	10,91
312,5	16,538
313	16,567
313,4	13,681
313,9	15,195
314,4	11,767
314,8	8,367
315,3	2,967
315,7	-2,862
316,2	-4,748
316,7	-8,948
317,1	-3,976
317,6	-1,548
318	3,538
318,5	7,424
319	8,967
319,4	13,795
319,9	19,767
320,3	18,31
320,8	19,995
321,3	21,195
321,7	19,91
322,2	17,024
322,6	16,938
323,1	14,51
323,6	10,281
324	9,652
324,5	5,252
324,9	7,395
325,4	8,424
325,9	7,995
326,3	7,481
326,8	12,938
327,2	6,167
327,7	10,024
328,2	10,852
328,6	13,452
329,1	7,252
329,5	8,91
330	4,281
330,5	13,224
330,9	14,138
331,4	10,652
331,8	10,052
332,3	16,31
332,8	15,938
333,2	17,681
333,7	17,367
334,1	17,252
334,6	17,167
335,1	10,767
335,5	8,795
336	7,395
336,4	6,567
336,9	11,91
337,4	12,995
337,8	11,767
338,3	17,367
338,7	21,91
339,2	21,252
339,7	25,795
340,1	16,281
340,6	17,081
341	15,395
341,5	14,395
342	7,51
342,4	7,052
342,9	5,081
343,3	6,91
343,8	2,681
344,2	8,567
344,7	14,681
345,2	15,338
345,6	18,11
346,1	21,11
346,5	15,71
347	13,738
347,5	10,195
347,9	8,795
348,4	13,081
348,8	13,51
349,3	7,452
349,8	16,31
350,2	24,052
350,7	22,967
351,1	18,652
351,6	20,395
352	23,081
352,5	35,252
353	41,881
353,4	40,738
353,9	52,195
354,3	66,224
354,8	74,738
355,3	93,51
355,7	107,738
356,2	123,995
356,6	153,995
357,1	180,138
357,5	208,852
358	246,567
358,5	277,881
358,9	321,681
359,4	371,91
359,8	422,138
360,3	485,767
360,8	551,538
361,2	629,71
361,7	717,024
362,1	812,452
362,6	915,967
363	1030,967
363,5	1148,938
364	1277,195
364,4	1400,538
364,9	1525,51
365,3	1648,795
365,8	1759,481
366,3	1866,91
366,7	1966,452
367,2	2055,738
367,6	2123,51
368,1	2180,595
368,5	2214,338
369	2234,452
369,5	2235,51
369,9	2220,138
370,4	2183,11
370,8	2139,224
371,3	2075,224
371,7	2004,395
372,2	1924,338
372,7	1829,71
373,1	1730,195
373,6	1628,024
374	1526,881
374,5	1421,624
374,9	1319,195
375,4	1222,538
375,9	1137,11
376,3	1049,338
376,8	967,624
377,2	888,738
377,7	819,538
378,2	752,252
378,6	687,995
379,1	624,967
379,5	572,595
380	528,481
380,4	482,51
380,9	443,881
381,4	407,395
381,8	381,795
382,3	361,11
382,7	339,281
383,2	313,995
383,6	294,852
384,1	275,995
384,6	262,367
385	243,824
385,5	224,481
385,9	205,881
386,4	191,367
386,8	180,338
387,3	168,31
387,7	155,481
388,2	144,624
388,7	133,167
389,1	124,31
389,6	118,652
390	112,452
390,5	108,167
390,9	103,738
391,4	96,995
391,9	95,281
392,3	92,795
392,8	83,71
393,2	76,424
393,7	71,138
394,1	63,081
394,6	61,195
395,1	56,024
395,5	52,052
396	54,052
396,4	51,395
396,9	48,995
397,3	51,567
397,8	52,338
398,2	50,824
398,7	50,11
399,2	49,652
399,6	49,395
400,1	49,71
400,5	44,681
401	41,481
401,4	39,31
401,9	44,852
402,4	43,824
402,8	40,652
403,3	44,395
403,7	44,595
404,2	46,624
404,6	51,31
405,1	43,595
405,5	38,024
406	39,738
406,5	34,081
406,9	37,71
407,4	33,738
407,8	32,938
408,3	33,024
408,7	34,567
409,2	38,338
409,6	41,338
410,1	42,595
410,6	47,052
411	48,881
411,5	53,395
411,9	58,052
412,4	59,281
412,8	63,281
413,3	64,91
413,7	68,138
414,2	69,081
414,7	75,424
415,1	84,481
415,6	86,51
416	87,367
416,5	88,852
416,9	87,652
417,4	91,11
417,8	94,995
418,3	93,567
418,8	99,652
419,2	100,11
419,7	100,281
420,1	105,395
420,6	102,138
421	101,681
421,5	101,31
421,9	98,681
422,4	102,367
422,8	100,31
423,3	99,452
423,8	101,367
424,2	95,51
424,7	93,081
425,1	91,367
425,6	92,138
426	94,31
426,5	95,567
426,9	97,452
427,4	96,252
427,9	93,652
428,3	96,824
428,8	92,424
429,2	90,595
429,7	86,652
430,1	87,995
430,6	90,881
431	94,767
431,5	94,052
431,9	91,052
432,4	98,652
432,8	104,081
433,3	102,624
433,8	100,195
434,2	102,481
434,7	105,167
435,1	114,395
435,6	113,052
436	111,081
436,5	115,081
436,9	117,31
437,4	118,681
437,8	120,995
438,3	121,252
438,8	122,824
439,2	125,852
439,7	131,538
440,1	144,167
440,6	153,824
441	154,195
441,5	161,252
441,9	170,51
442,4	175,11
442,8	177,338
443,3	181,71
443,7	185,452
444,2	196,31
444,7	200,595
445,1	207,081
445,6	216,881
446	224,31
446,5	225,481
446,9	227,681
447,4	234,081
447,8	242,795
448,3	252,767
448,7	261,024
449,2	274,795
449,6	292,138
450,1	307,081
450,6	322,567
451	333,995
451,5	346,052
451,9	362,338
452,4	375,681
452,8	384,31
453,3	406,138
453,7	412,738
454,2	427,824
454,6	439,967
455,1	449,71
455,5	461,052
456	482,824
456,4	486,31
456,9	508,11
457,3	525,024
457,8	538,567
458,3	563,081
458,7	576,967
459,2	588,767
459,6	609,595
460,1	627,538
460,5	642,995
461	668,995
461,4	677,967
461,9	698,252
462,3	721,738
462,8	739,281
463,2	757,91
463,7	781,338
464,1	798,795
464,6	828,081
465	852,51
465,5	875,11
466	901,024
466,4	925,252
466,9	947,195
467,3	971,681
467,8	991,51
468,2	1013,681
468,7	1033,738
469,1	1061,91
469,6	1088,452
470	1114,51
470,5	1138,367
470,9	1159,852
471,4	1180,681
471,8	1204,11
472,3	1224,681
472,7	1246,91
473,2	1268,167
473,6	1288,824
474,1	1321,795
474,5	1349,424
475	1375,938
475,4	1401,395
475,9	1421,367
476,4	1446,538
476,8	1474,195
477,3	1492,052
477,7	1518,338
478,2	1539,91
478,6	1557,595
479,1	1579,995
479,5	1599,395
480	1618,31
480,4	1644,338
480,9	1665,995
481,3	1686,624
481,8	1709,967
482,2	1723,481
482,7	1743,852
483,1	1760,024
483,6	1770,681
484	1786,195
484,5	1803,881
484,9	1815,424
485,4	1840,652
485,8	1859,338
486,3	1877,224
486,7	1898,51
487,2	1910,538
487,6	1926,71
488,1	1945,252
488,5	1952,252
489	1965,652
489,4	1976,195
489,9	1981,31
490,4	1993,767
490,8	2002,567
491,3	2012,538
491,7	2021,138
492,2	2028,852
492,6	2039,11
493,1	2050,252
493,5	2055,281
494	2057,338
494,4	2062,252
494,9	2071,11
495,3	2076,452
495,8	2078,995
496,2	2082,852
496,7	2085,681
497,1	2093,681
497,6	2097,767
498	2105,538
498,5	2109,595
498,9	2111,881
499,4	2118,167
499,8	2128,938
500,3	2131,681
500,7	2134,224
501,2	2130,595
501,6	2133,31
502,1	2137,338
502,5	2134,681
503	2134,967
503,4	2133,338
503,9	2134,567
504,3	2142,881
504,8	2142,624
505,2	2143,852
505,7	2147,767
506,1	2145,881
506,6	2146,595
507	2144,881
507,5	2141,738
507,9	2140,224
508,4	2139,795
508,8	2132,91
509,3	2128,824
509,7	2134,195
510,2	2135,738
510,6	2131,681
511,1	2130,938
511,5	2130,11
512	2135,395
512,4	2137,652
512,9	2131,538
513,3	2131,938
513,8	2130,452
514,2	2127,881
514,7	2123,852
515,1	2121,938
515,6	2116,852
516	2111,767
516,5	2113,452
516,9	2112,91
517,4	2115,595
517,8	2120,91
518,3	2113,395
518,7	2113,195
519,2	2114,967
519,6	2108,681
520,1	2111,795
520,5	2109,424
521	2099,71
521,4	2108,31
521,9	2107,567
522,3	2106,795
522,8	2105,138
523,2	2103,138
523,7	2099,167
524,1	2103,281
524,6	2101,738
525	2102,281
525,5	2098,91
525,9	2100,195
526,4	2098,452
526,8	2102,367
527,3	2102,11
527,7	2099,481
528,2	2098,852
528,6	2094,824
529,1	2096,367
529,5	2103,081
530	2103,567
530,4	2105,795
530,9	2108,995
531,3	2111,138
531,8	2120,252
532,2	2122,71
532,6	2116,024
533,1	2113,71
533,5	2114,652
534	2115,967
534,4	2116,281
534,9	2119,738
535,3	2118,224
535,8	2125,852
536,2	2132,195
536,7	2135,167
537,1	2132,424
537,6	2141,424
538	2141,738
538,5	2146,881
538,9	2143,938
539,4	2148,595
539,8	2148,881
540,3	2161,481
540,7	2155,738
541,2	2156,681
541,6	2156,852
542,1	2160,795
542,5	2163,195
543	2166,138
543,4	2158,91
543,9	2169,624
544,3	2173,538
544,8	2172,51
545,2	2172,567
545,7	2174,395
546,1	2183,395
546,5	2191,767
547	2192,91
547,4	2199,195
547,9	2203,138
548,3	2210,652
548,8	2216,567
549,2	2211,567
549,7	2213,052
550,1	2218,395
550,6	2221,052
551	2229,595
551,5	2229,138
551,9	2225,424
552,4	2231,652
552,8	2238,938
553,3	2237,224
553,7	2235,338
554,2	2236,881
554,6	2246,995
555,1	2248,91
555,5	2248,252
555,9	2250,195
556,4	2254,138
556,8	2258,338
557,3	2264,538
557,7	2260,51
558,2	2263,652
558,6	2268,481
559,1	2265,71
559,5	2268,424
560	2272,595
560,4	2273,024
560,9	2281,338
561,3	2283,395
561,8	2283,224
562,2	2291,91
562,7	2294,424
563,1	2300,71
563,6	2297,167
564	2292,967
564,4	2295,367
564,9	2304,881
565,3	2299,252
565,8	2300,052
566,2	2295,195
566,7	2300,31
567,1	2303,595
567,6	2304,195
568	2298,481
568,5	2296,91
568,9	2297,167
569,4	2298,281
569,8	2299,167
570,3	2302,595
570,7	2303,367
571,1	2308,338
571,6	2310,138
572	2312,738
572,5	2319,481
572,9	2314,31
573,4	2311,595
573,8	2318,967
574,3	2313,138
574,7	2317,11
575,2	2310,738
575,6	2302,71
576,1	2311,767
576,5	2311,967
576,9	2298,738
577,4	2303,652
577,8	2296,71
578,3	2298,395
578,7	2296,11
579,2	2289,252
579,6	2284,767
580,1	2286,71
580,5	2280,71
581	2284,081
581,4	2282,281
581,9	2278,395
582,3	2275,024
582,7	2276,11
583,2	2271,024
583,6	2270,167
584,1	2266,852
584,5	2264,424
585	2262,395
585,4	2258,71
585,9	2253,338
586,3	2252,338
586,8	2246,31
587,2	2240,567
587,6	2240,881
588,1	2245,024
588,5	2241,824
589	2240,567
589,4	2236,31
589,9	2232,881
590,3	2228,367
590,8	2222,51
591,2	2215,224
591,7	2217,852
592,1	2209,795
592,5	2213,881
593	2208,424
593,4	2208,481
593,9	2200,367
594,3	2193,31
594,8	2180,938
595,2	2177,795
595,7	2172,938
596,1	2173,652
596,6	2170,967
597	2165,081
597,4	2166,167
597,9	2166,481
598,3	2168,967
598,8	2165,681
599,2	2158,424
599,7	2153,367
600,1	2151,538
600,6	2145,424
601	2142,052
601,4	2140,681
601,9	2136,252
602,3	2129,995
602,8	2123,681
603,2	2122,081
603,7	2115,224
604,1	2110,738
604,6	2098,31
605	2084,652
605,4	2087,824
605,9	2078,452
606,3	2068,252
606,8	2062,481
607,2	2048,967
607,7	2040,224
608,1	2037,281
608,6	2029,281
609	2030,852
609,4	2027,624
609,9	2022,281
610,3	2021,424
610,8	2023,138
611,2	2018,138
611,7	2010,024
612,1	1999,995
612,6	1996,567
613	1994,424
613,4	1986,51
613,9	1976,424
614,3	1966,424
614,8	1959,481
615,2	1949,995
615,7	1943,338
616,1	1934,395
616,6	1926,367
617	1915,338
617,4	1912,767
617,9	1911,281
618,3	1913,081
618,8	1910,538
619,2	1903,395
619,7	1904,767
620,1	1903,281
620,5	1895,31
621	1880,224
621,4	1871,624
621,9	1857,481
622,3	1851,938
622,8	1837,795
623,2	1827,081
623,6	1824,767
624,1	1820,595
624,5	1808,281
625	1807,338
625,4	1798,224
625,9	1789,881
626,3	1779,624
626,8	1764,052
627,2	1760,167
627,6	1747,91
628,1	1729,652
628,5	1722,452
629	1714,367
629,4	1710,31
629,9	1704,252
630,3	1693,224
630,7	1688,995
631,2	1686,024
631,6	1675,881
632,1	1674,567
632,5	1668,024
633	1659,852
633,4	1650,652
633,8	1642,652
634,3	1632,881
634,7	1626,452
635,2	1605,424
635,6	1595,11
636,1	1585,281
636,5	1573,252
636,9	1556,652
637,4	1547,995
637,8	1534,195
638,3	1534,052
638,7	1524,738
639,2	1518,338
639,6	1513,881
640	1515,052
640,5	1508,481
640,9	1502,481
641,4	1491,881
641,8	1482,767
642,2	1479,281
642,7	1476,395
643,1	1475,624
643,6	1467,824
644	1464,31
644,5	1460,967
644,9	1460,652
645,3	1450,452
645,8	1435,452
646,2	1428,824
646,7	1422,481
647,1	1414,738
647,6	1412,51
648	1403,595
648,4	1395,338
648,9	1397,51
649,3	1378,738
649,8	1375,595
650,2	1371,481
650,6	1363,652
651,1	1352,995
651,5	1351,138
652	1340,824
652,4	1337,767
652,9	1330,738
653,3	1320,338
653,7	1309,738
654,2	1306,71
654,6	1292,138
655,1	1287,252
655,5	1290,681
655,9	1282,338
656,4	1276,338
656,8	1268,852
657,3	1260,738
657,7	1264,938
658,2	1253,138
658,6	1238,71
659	1230,538
659,5	1219,195
659,9	1213,738
660,4	1205,967
660,8	1189,252
661,2	1182,195
661,7	1175,995
662,1	1172,767
662,6	1167,881
663	1159,91
663,4	1152,395
663,9	1149,138
664,3	1143,995
664,8	1135,224
665,2	1124,51
665,6	1121,824
666,1	1113,824
666,5	1105,367
667	1100,395
667,4	1090,481
667,9	1085,138
668,3	1077,481
668,7	1071,31
669,2	1068,767
669,6	1063,767
670,1	1057,024
670,5	1054,51
670,9	1046,995
671,4	1038,938
671,8	1035,481
672,3	1030,795
672,7	1026,195
673,1	1012,31
673,6	1005,738
674	1001,052
674,5	996,767
674,9	982,481
675,3	972,138
675,8	968,11
676,2	963,395
676,7	953,624
677,1	946,767
677,5	940,224
678	938,624
678,4	935,767
678,9	927,252
679,3	926,795
679,7	923,881
680,2	916,195
680,6	909,281
681,1	902,681
681,5	895,767
681,9	891,71
682,4	885,252
682,8	883,567
683,3	880,852
683,7	879,738
684,1	870,995
684,6	865,281
685	862,881
685,5	855,424
685,9	843,767
686,3	836,395
686,8	827,167
687,2	829,795
687,7	821,881
688,1	810,224
688,5	806,881
689	805,338
689,4	800,081
689,9	800,681
690,3	789,681
690,7	788,024
691,2	787,51
691,6	782,567
692	778,652
692,5	769,795
692,9	759,652
693,4	754,452
693,8	748,338
694,2	744,338
694,7	741,71
695,1	734,395
695,6	736,31
696	735,11
696,4	733,567
696,9	726,195
697,3	718,624
697,8	713,938
698,2	707,51
698,6	701,852
699,1	693,024
699,5	689,424
699,9	686,738
700,4	679,91
700,8	672,367
701,3	673,452
701,7	664,395
702,1	663,71
702,6	656,052
703	650,995
703,5	649,367
703,9	645,31
704,3	642,452
704,8	643,938
705,2	637,595
705,6	634,338
706,1	634,395
706,5	631,367
707	629,252
707,4	622,452
707,8	615,681
708,3	614,567
708,7	609,395
709,2	600,338
709,6	593,452
710	591,538
710,5	584,424
710,9	580,767
711,3	573,338
711,8	573,252
712,2	576,252
712,7	574,052
713,1	570,71
713,5	571,767
714	569,967
714,4	569,595
714,8	565,052
715,3	554,31
715,7	552,224
716,2	546,595
716,6	539,224
717	532,395
717,5	530,31
717,9	531,11
718,3	527,71
718,8	524,138
719,2	521,338
719,7	518,538
720,1	517,852
720,5	516,681
721	507,71
721,4	506,595
721,8	502,738
722,3	498,11
722,7	501,452
723,2	495,224
723,6	482,51
724	479,967
724,5	475,338
724,9	470,595
725,3	466,052
725,8	455,795
726,2	454,51
726,7	457,852
727,1	454,367
727,5	453,252
728	444,738
728,4	444,138
728,8	440,51
729,3	435,538
729,7	428,652
730,1	425,767
730,6	422,395
731	427,138
731,5	423,967
731,9	422,224
732,3	423,738
732,8	425,938
733,2	426,31
733,6	424,195
734,1	422,052
734,5	421,167
734,9	422,081
735,4	419,995
735,8	412,395
736,3	412,252
736,7	408,538
737,1	407,652
737,6	404,795
738	400,424
738,4	398,395
738,9	399,195
739,3	391,995
739,7	389,624
740,2	379,71
740,6	378,567
741,1	380,681
741,5	375,024
741,9	375,595
742,4	376,595
742,8	374,995
743,2	376,967
743,7	373,052
744,1	367,224
744,5	361,31
745	355,11
745,4	349,738
745,8	347,681
746,3	344,938
746,7	340,681
747,2	337,367
747,6	339,167
748	338,767
748,5	341,252
748,9	338,081
749,3	335,795
749,8	337,481
750,2	338,452
750,6	335,452
751,1	333,967
751,5	330,167
751,9	333,11
752,4	336,452
752,8	331,652
753,3	327,367
753,7	328,738
754,1	327,624
754,6	322,624
755	319,31
755,4	312,852
755,9	310,052
756,3	307,652
756,7	304,71
757,2	298,481
757,6	300,138
758	296,538
758,5	295,024
758,9	297,081
759,3	297,71
759,8	296,338
760,2	299,167
760,6	292,538
761,1	292,31
761,5	288,138
761,9	284,681
762,4	278,91
762,8	275,395
763,3	268,681
763,7	273,338
764,1	267,767
764,6	272,281
765	271,395
765,4	273,51
765,9	272,31
766,3	276,395
766,7	267,424
767,2	264,11
767,6	261,424
768	259,11
768,5	254,738
768,9	253,795
769,3	248,252
769,8	248,624
770,2	255,138
770,6	254,51
771,1	253,938
771,5	255,11
771,9	258,024
772,4	260,481
772,8	257,881
773,2	253,595
773,7	249,252
774,1	245,538
774,5	241,338
775	238,052
775,4	232,395
775,8	230,824
776,3	229,367
776,7	228,824
777,1	231,138
777,6	231,881
778	229,567
778,4	228,481
778,9	231,71
779,3	225,967
779,7	224,567
780,2	224,881
780,6	222,624
781	221,11
781,5	213,167
781,9	206,167
782,3	206,367
782,8	202,452
783,2	197,538
783,6	200,91
784,1	196,367
784,5	198,681
784,9	199,567
785,4	200,195
785,8	201,138
786,2	199,195
786,7	195,252
787,1	194,31
787,5	195,938
788	197,052
788,4	195,224
788,8	192,252
789,3	187,795
789,7	184,081
790,1	183,624
790,6	182,938
791	175,767
791,4	177,795
791,9	175,71
792,3	172,224
792,7	175,881
793,2	173,395
793,6	172,824
794	177,281
794,5	171,767
794,9	173,424
795,3	177,452
795,8	171,052
796,2	173,052
796,6	172,395
797,1	169,767
797,5	167,795
797,9	165,967
798,4	161,91
798,8	160,367
799,2	157,452
799,7	157,167
800,1	158,567
800,5	163,252
801	164,595
801,4	162,052
801,8	157,51
802,2	158,338
802,7	153,338
803,1	148,31
803,5	143,595
804	137,281
804,4	140,167
804,8	143,367
805,3	144,338
805,7	148,195
806,1	146,71
806,6	148,767
807	149,995
807,4	148,881
807,9	146,652
808,3	144,681
808,7	141,395
809,2	146,167
809,6	144,967
810	141,71
810,4	138,052
810,9	136,081
811,3	135,31
811,7	135,51
812,2	138,052
812,6	131,91
813	137,395
813,5	136,938
813,9	134,738
814,3	130,052
814,8	129,738
815,2	119,252
815,6	121,652
816,1	120,424
816,5	123,338
816,9	126,681
817,3	129,024
817,8	126,51
818,2	131,938
818,6	131,738
819,1	126,767
819,5	120,91
819,9	117,681
820,4	113,11
820,8	110,452
821,2	101,938
821,7	100,881
822,1	101,452
822,5	109,795
822,9	110,052
823,4	111,452
823,8	114,367
824,2	120,51
824,7	114,567
825,1	113,738
825,5	104,881
826	102,481
826,4	103,652
826,8	102,11
827,3	100,167
827,7	101,224
828,1	101,281
828,5	103,224
829	98,138
829,4	96,71
829,8	88,167
830,3	88,11
830,7	84,71
831,1	82,11
831,6	81,052
832	84,338
832,4	79,91
832,8	84,395
833,3	81,824
833,7	85,138
834,1	85,281
834,6	85,538
835	89,052
835,4	91,195
835,8	89,767
836,3	84,395
836,7	88,681
837,1	85,024
837,6	82,681
838	76,51
838,4	75,738
838,9	74,367
839,3	75,624
839,7	69,424
840,1	65,824
840,6	66,195
841	67,795
841,4	67,881
841,9	68,452
842,3	67,338
842,7	67,081
843,1	70,224
843,6	70,31
844	70,967
844,4	74,252
844,9	75,71
845,3	76,995
845,7	76,195
846,2	72,424
846,6	69,71
847	69,71
847,4	68,567
847,9	67,281
848,3	65,795
848,7	65,824
849,2	69,71
849,6	68,91
850	74,31
850,4	70,852
850,9	71,081
851,3	74,881
851,7	76,452
852,2	75,51
852,6	78,395
853	72,367
853,4	68,481
853,9	68,395
854,3	63,995
854,7	60,51
855,2	63,31
855,6	61,995
856	59,71
856,4	58,31
856,9	53,824
857,3	54,681
857,7	56,938
858,2	57,224
858,6	56,424
859	55,967
859,4	59,31
859,9	59,024
860,3	54,938
860,7	57,624
861,1	55,481
861,6	51,624
862	54,31
862,4	50,424
862,9	52,91
863,3	57,252
863,7	51,652
864,1	53,167
864,6	54,795
865	50,938
865,4	53,824
865,9	54,681
866,3	51,995
866,7	53,767
867,1	48,024
867,6	53,024
868	51,31
868,4	50,138
868,8	51,081
869,3	52,224
869,7	54,481
870,1	53,767
870,6	46,11
871	28,538
871,4	33,11
871,8	29,481
872,3	31,881
872,7	29,081
873,1	29,395
873,5	30,452
874	47,424
874,4	40,738
874,8	42,224
875,3	40,195
875,7	41,195
876,1	45,995
876,5	45,824
877	46,852
877,4	44,881
877,8	43,91
878,2	44,167
878,7	43,595
879,1	41,395
879,5	47,252
879,9	50,852
880,4	52,395
880,8	50,852
881,2	47,91
881,7	47,052
882,1	46,995
882,5	38,51
882,9	35,281
883,4	35,11
883,8	38,652
884,2	40,538
884,6	38,081
885,1	39,91
885,5	44,624
885,9	41,852
886,3	46,224
886,8	41,995
887,2	40,452
887,6	41,224
888	37,367
888,5	33,567
888,9	32,224
889,3	26,081
889,8	23,795
890,2	21,31
890,6	14,138
891	16,395
891,5	16,881
891,9	22,481
892,3	27,367
892,7	27,91
893,2	30,995
893,6	38,624
894	38,024
894,4	38,995
894,9	32,91
895,3	30,281
895,7	32,852
896,1	29,252
896,6	27,195
897	29,052
897,4	31,795
897,8	39,081
898,3	40,252
898,7	38,252
899,1	38,91
899,5	37,595
900	29,624
900,4	29,195
900,8	25,224
901,2	23,052
901,7	22,71
902,1	25,738
902,5	26,51
902,9	29,167
903,4	28,081
903,8	31,338
904,2	28,967
904,6	31,71
905,1	32,824
905,5	31,938
905,9	36,624
906,3	36,681
906,8	38,881
907,2	42,481
907,6	43,795
908	42,652
908,5	44,367
908,9	40,652
909,3	36,852
909,7	31,995
910,2	32,338
910,6	34,281
911	27,51
911,4	24,995
911,9	21,338
912,3	21,938
912,7	24,681
913,1	25,367
913,6	21,652
914	25,967
914,4	25,938
914,8	29,51
915,3	28,852
915,7	25,795
916,1	23,11
916,5	26,824
916,9	29,624
917,4	30,767
917,8	29,338
918,2	27,652
918,6	24,424
919,1	22,595
919,5	18,567
919,9	16,595
920,3	16,252
920,8	17,967
921,2	19,024
921,6	23,252
922	24,281
922,5	22,195
922,9	20,052
923,3	20,281
923,7	22,224
924,2	23,652
924,6	22,138
925	23,224
925,4	24,281
925,8	25,681
926,3	22,395
926,7	16,367
927,1	11,024
927,5	12,852
928	8,252
928,4	5,138
928,8	5,738
929,2	8,224
929,7	13,452
930,1	18,824
930,5	15,481
930,9	20,767
931,3	23,767
931,8	25,281
932,2	22,024
932,6	17,824
933	10,452
933,5	11,824
933,9	12,052
934,3	10,338
934,7	7,938
935,2	13,138
935,6	12,967
936	17,31
936,4	16,938
936,8	21,31
937,3	21,624
937,7	20,738
938,1	22,281
938,5	19,11
939	21,567
939,4	21,538
939,8	15,338
940,2	14,852
940,6	17,167
941,1	12,824
941,5	23,881
941,9	23,338
942,3	25,081
942,8	26,624
943,2	30,338
943,6	26,767
944	29,395
944,4	22,738
944,9	20,395
945,3	14,652
945,7	11,11
946,1	6,224
946,6	7,11
947	2,424
947,4	3,081
947,8	6,681
948,2	5,138
948,7	6,852
949,1	9,195
949,5	12,767
949,9	15,51
950,3	15,652
950,8	13,395
951,2	16,51
951,6	14,624
952	14,338
952,5	9,338
952,9	10,595
953,3	7,538
953,7	5,367
954,1	12,824
954,6	14,538
955	11,824
955,4	11,795
955,8	12,281
956,2	16,081
956,7	20,51
957,1	12,167
957,5	17,024
957,9	19,538
958,3	18,681
958,8	18,024
959,2	18,081
959,6	16,252
960	19,624
960,5	18,052
960,9	21,081
961,3	19,91
961,7	16,967
962,1	15,795
962,6	18,71
963	15,967
963,4	10,195
963,8	6,881
964,2	9,595
964,7	14,081
965,1	17,367
965,5	15,224
965,9	17,395
966,3	20,567
966,8	22,338
967,2	21,538
967,6	18,652
968	10,824
968,4	8,538
968,9	9,538
969,3	14,252
969,7	10,395
970,1	13,395
970,5	13,767
971	22,424
971,4	23,738
971,8	19,167
972,2	16,567
972,6	18,052
973,1	15,624
973,5	18,052
973,9	14,138
974,3	15,738
974,7	20,252
975,2	17,852
975,6	14,024
976	16,51
976,4	13,595
976,8	13,795
977,3	13,138
977,7	7,91
978,1	9,852
978,5	13,795
978,9	9,795
979,4	9,595
979,8	8,938
980,2	8,738
980,6	11,91
981	11,367
981,5	10,795
981,9	9,167
982,3	8,081
982,7	8,652
983,1	6,11
983,6	6,138
984	6,395
984,4	4,71
984,8	9,681
985,2	7,967
985,6	6,938
986,1	8,367
986,5	10,624
986,9	7,51
987,3	15,481
987,7	14,338
988,2	16,71
988,6	14,881
989	15,595
989,4	16,424
989,8	15,424
990,3	10,31
990,7	10,11
991,1	8,824
991,5	12,024
991,9	14,567
992,3	12,767
992,8	18,338
993,2	18,51
993,6	21,138
994	24,481
994,4	26,624
994,9	22,452
995,3	19,367
995,7	15,538
996,1	17,052
996,5	14,252
996,9	7,938
997,4	5,052
997,8	4,424
998,2	1,452
998,6	-0,462
999	-4,805
999,5	-5,176
999,9	-2,348
1000,3	-2,805
1000,7	-3,376
1001,1	-1,89
1001,5	1,852
1002	0,71
1002,4	1,681
1002,8	2,11
1003,2	7,681
1003,6	9,852
1004	14,824
1004,5	12,167
1004,9	20,052
1005,3	15,681
1005,7	20,824
1006,1	11,681
1006,6	10,424
1007	8,881
1007,4	8,338
1007,8	3,052
1008,2	3,738
1008,6	4,795
1009,1	6,11
1009,5	7,224
1009,9	6,71
1010,3	7,967
1010,7	8,395
1011,1	13,995
1011,6	11,538
1012	17,767
1012,4	20,395
1012,8	19,281
1013,2	23,738
1013,6	24,538
1014,1	21,51
1014,5	20,31
1014,9	15,252
1015,3	12,024
1015,7	10,852
1016,1	9,624
1016,6	5,31
1017	8,91
1017,4	8,224
1017,8	7,881
1018,2	11,11
1018,6	10,795
1019,1	8,538
1019,5	15,938
1019,9	7,052
1020,3	7,881
1020,7	10,024
1021,1	9,795
1021,6	10,31
1022	14,995
1022,4	11,595
1022,8	18,424
1023,2	18,91
1023,6	18,081
1024,1	23,795
1024,5	28,852
1024,9	21,224
1025,3	20,595
1025,7	23,995
1026,1	23,481
1026,6	25,367
1027	17,367
1027,4	17,138
1027,8	18,91
1028,2	17,367
1028,6	18,195
1029	15,024
1029,5	19,595
1029,9	17,795
1030,3	17,195
1030,7	18,452
1031,1	24,11
1031,5	16,424
1032	18,824
1032,4	11,338
1032,8	15,452
1033,2	13,767
1033,6	10,681
1034	10,11
1034,4	11,681
1034,9	15,624
1035,3	12,795
1035,7	11,081
1036,1	5,281
1036,5	6,138
1036,9	4,024
1037,4	9,195
1037,8	1,052
1038,2	4,281
1038,6	6,567
1039	15,424
1039,4	20,881
1039,8	16,767
1040,3	15,167
1040,7	17,795
1041,1	18,567
1041,5	21,138
1041,9	14,938
1042,3	12,91
1042,7	13,081
1043,2	10,938
1043,6	10,481
1044	12,31
1044,4	7,167
1044,8	13,195
1045,2	11,052
1045,6	16,338
1046,1	17,11
1046,5	18,71
1046,9	15,881
1047,3	14,91
1047,7	10,052
1048,1	9,167
1048,5	7,224
1049	7,367
1049,4	11,224
1049,8	13,938
1050,2	15,881
1050,6	21,91
1051	26,681
1051,4	23,91
1051,9	23,91
1052,3	26,767
1052,7	25,91
1053,1	23,195
1053,5	18,052
1053,9	15,738
1054,3	17,91
1054,8	21,024
1055,2	16,052
1055,6	14,481
1056	18,424
1056,4	17,767
1056,8	22,967
1057,2	21,252
1057,6	13,338
1058,1	11,281
1058,5	7,51
1058,9	9,795
1059,3	11,624
1059,7	7,252
1060,1	10,538
1060,5	14,738
1061	16,395
1061,4	21,681
1061,8	19,538
1062,2	18,738
1062,6	22,11
1063	20,738
1063,4	19,367
1063,8	22,195
1064,3	16,595
1064,7	16,024
1065,1	13,652
1065,5	5,795
1065,9	5,881
1066,3	6,567
1066,7	-0,262
1067,1	2,624
1067,6	1,595
1068	1,767
1068,4	7,852
1068,8	9,395
1069,2	9,567
1069,6	16,995
1070	23,624
1070,4	22,424
1070,9	24,081
1071,3	22,195
1071,7	21,652
1072,1	23,367
1072,5	18,681
1072,9	12,024
1073,3	15,31
1073,7	20,452
1074,2	20,652
1074,6	20,31
1075	17,11
1075,4	18,195
1075,8	20,967
1076,2	16,852
1076,6	13,51
1077	11,367
1077,5	14,424
1077,9	12,31
1078,3	11,824
1078,7	11,424
1079,1	16,024
1079,5	15,967
1079,9	19,481
1080,3	17,424
1080,7	22,452
1081,2	27,024
1081,6	26,91
1082	22,738
1082,4	25,167
1082,8	26,767
1083,2	25,224
1083,6	26,995
1084	23,052
1084,5	25,052
1084,9	24,138
1085,3	18,338
1085,7	13,338
1086,1	10,91
1086,5	9,681
1086,9	13,481
1087,3	8,967
1087,7	9,395
1088,2	12,052
1088,6	8,852
1089	13,767
1089,4	11,024
1089,8	10,195
1090,2	13,224
1090,6	13,167
1091	17,424
1091,4	20,452
1091,9	17,681
1092,3	16,11
1092,7	10,252
1093,1	10,852
1093,5	11,681
1093,9	8,11
1094,3	12,395
1094,7	10,395
1095,1	14,481
1095,5	16,367
1096	16,995
1096,4	20,995
1096,8	21,538
1097,2	16,967
1097,6	20,767
1098	17,624
1098,4	19,195
1098,8	17,71
1099,2	16,824
1099,6	16,224
1100,1	13,91
1100,5	10,138
1100,9	11,11
1101,3	8,51
1101,7	8,51
1102,1	6,595
1102,5	6,024
1102,9	8,995
1103,3	14,51
1103,7	17,052
1104,2	16,881
1104,6	14,31
1105	13,767
1105,4	11,481
1105,8	9,31
1106,2	4,11
1106,6	0,11
1107	0,138
1107,4	0,033
1107,8	-1,593
1108,3	-0,733
