Data from Subt2_00028.txt Node
Date: Wed Aug 02 19:30:57 MSK 2023
User: vat
Spectrometer: MAYP114033
Trigger mode: 0
Integration Time (sec): 7,000000E-1
Scans to average: 5
Electric dark correction enabled: true
Nonlinearity correction enabled: false
Boxcar width: 0
XAxis mode: Wavelengths
Number of Pixels in Spectrum: 2068
>>>>>Begin Spectral Data<<<<<
199,4	0,433
199,9	-1,167
200,4	2,233
200,8	1,433
201,3	-15,767
201,8	19,233
202,2	-3,967
202,7	-3,967
203,2	15,433
203,6	13,633
204,1	10,033
204,6	21,233
205	4,633
205,5	1,233
206	2,033
206,4	-7,567
206,9	-9,167
207,4	28,433
207,8	21,033
208,3	-18,967
208,8	14,833
209,2	17,033
209,7	5,433
210,2	7,433
210,6	-1,567
211,1	-1,767
211,5	2,433
212	-14,967
212,5	6,233
212,9	-15,367
213,4	-1,367
213,9	-11,567
214,3	-7,967
214,8	-9,567
215,3	-5,567
215,7	26,633
216,2	9,033
216,7	-14,367
217,1	-14,167
217,6	21,033
218,1	-12,967
218,5	7,433
219	4,433
219,5	-15,567
219,9	14,433
220,4	-2,367
220,9	6,633
221,3	22,633
221,8	23,433
222,3	21,433
222,7	-3,367
223,2	27,833
223,6	3,033
224,1	11,433
224,6	2,033
225	-7,767
225,5	11,433
226	-1,167
226,4	18,433
226,9	-12,967
227,4	5,233
227,8	-10,167
228,3	16,833
228,8	1,033
229,2	3,233
229,7	32,633
230,2	-25,967
230,6	-29,767
231,1	-18,567
231,5	-1,567
232	49,833
232,5	23,833
232,9	-3,167
233,4	2,233
233,9	13,833
234,3	30,033
234,8	-2,367
235,3	16,633
235,7	-3,767
236,2	-5,967
236,7	8,433
237,1	-9,967
237,6	-15,367
238,1	15,033
238,5	-1,367
239	31,833
239,4	7,633
239,9	-17,567
240,4	31,033
240,8	-1,967
241,3	-10,167
241,8	2,633
242,2	7,833
242,7	2,833
243,2	-8,767
243,6	1,033
244,1	-15,567
244,6	-20,567
245	-5,967
245,5	-25,367
245,9	-6,967
246,4	13,433
246,9	8,233
247,3	9,433
247,8	24,633
248,3	-3,767
248,7	4,633
249,2	8,433
249,7	-5,567
250,1	14,433
250,6	-0,567
251	-26,567
251,5	26,433
252	9,233
252,4	28,633
252,9	20,033
253,4	13,233
253,8	29,633
254,3	-1,967
254,8	-3,167
255,2	-10,167
255,7	9,033
256,1	6,633
256,6	-38,567
257,1	19,233
257,5	38,033
258	41,033
258,5	9,433
258,9	4,633
259,4	7,633
259,9	20,233
260,3	-30,567
260,8	-0,367
261,2	1,633
261,7	5,233
262,2	8,833
262,6	8,233
263,1	-36,567
263,6	32,833
264	6,033
264,5	10,233
264,9	26,033
265,4	22,833
265,9	1,033
266,3	-29,767
266,8	33,433
267,3	-10,167
267,7	7,233
268,2	10,233
268,7	32,233
269,1	-6,967
269,6	13,833
270	4,033
270,5	-6,367
271	-3,967
271,4	5,233
271,9	-11,767
272,4	-1,567
272,8	3,233
273,3	24,433
273,7	7,833
274,2	35,433
274,7	12,633
275,1	10,633
275,6	-37,367
276,1	6,633
276,5	-0,167
277	10,633
277,4	24,833
277,9	9,433
278,4	8,233
278,8	7,233
279,3	17,433
279,8	-2,167
280,2	13,433
280,7	2,233
281,1	9,033
281,6	-24,567
282,1	23,433
282,5	37,033
283	-16,167
283,4	12,033
283,9	7,233
284,4	-13,767
284,8	-2,767
285,3	2,633
285,8	7,633
286,2	11,033
286,7	1,233
287,1	-10,967
287,6	25,833
288,1	3,033
288,5	-0,567
289	19,233
289,5	-28,167
289,9	2,233
290,4	-2,767
290,8	-2,767
291,3	4,833
291,8	12,633
292,2	4,233
292,7	38,833
293,1	16,033
293,6	23,033
294,1	16,233
294,5	12,033
295	-5,367
295,5	2,033
295,9	2,433
296,4	7,433
296,8	-5,967
297,3	18,433
297,8	4,833
298,2	-29,967
298,7	-3,767
299,1	4,833
299,6	-4,967
300,1	13,033
300,5	3,633
301	16,633
301,5	-17,567
301,9	-17,767
302,4	3,433
302,8	-14,167
303,3	-35,567
303,8	-6,567
304,2	12,433
304,7	2,033
305,1	-11,167
305,6	-4,167
306,1	-17,167
306,5	-12,167
307	3,633
307,4	17,033
307,9	-8,367
308,4	-9,367
308,8	-5,567
309,3	-19,367
309,8	-1,767
310,2	14,033
310,7	15,033
311,1	-11,567
311,6	-14,367
312,1	9,033
312,5	24,033
313	24,033
313,4	12,233
313,9	2,633
314,4	6,433
314,8	-11,367
315,3	20,633
315,7	-4,167
316,2	14,633
316,7	-1,167
317,1	-18,567
317,6	-11,167
318	-2,767
318,5	15,033
319	-30,167
319,4	8,633
319,9	-17,567
320,3	4,433
320,8	12,033
321,3	7,433
321,7	-0,967
322,2	17,033
322,6	-7,567
323,1	12,233
323,6	-0,967
324	1,633
324,5	-9,767
324,9	-7,767
325,4	-2,767
325,9	0,833
326,3	27,233
326,8	-3,767
327,2	-8,367
327,7	11,433
328,2	3,033
328,6	11,433
329,1	-4,967
329,5	-6,967
330	13,833
330,5	-1,367
330,9	1,433
331,4	2,233
331,8	-5,567
332,3	-7,767
332,8	7,633
333,2	19,833
333,7	-7,567
334,1	7,233
334,6	10,833
335,1	-4,767
335,5	-0,767
336	21,033
336,4	-2,167
336,9	-16,967
337,4	-3,967
337,8	6,233
338,3	2,833
338,7	-3,367
339,2	0,633
339,7	13,433
340,1	-1,567
340,6	14,833
341	0,233
341,5	28,833
342	47,833
342,4	22,233
342,9	-3,567
343,3	23,433
343,8	-1,767
344,2	-10,167
344,7	16,433
345,2	20,433
345,6	17,833
346,1	5,233
346,5	7,233
347	2,633
347,5	38,833
347,9	57,033
348,4	55,833
348,8	2,433
349,3	2,433
349,8	1,433
350,2	2,233
350,7	32,033
351,1	12,633
351,6	29,633
352	46,633
352,5	37,033
353	84,033
353,4	46,633
353,9	86,633
354,3	115,033
354,8	146,233
355,3	194,033
355,7	173,033
356,2	219,033
356,6	284,433
357,1	332,233
357,5	373,033
358	445,433
358,5	534,233
358,9	646,833
359,4	722,033
359,8	831,633
360,3	963,433
360,8	1084,833
361,2	1260,433
361,7	1447,633
362,1	1633,433
362,6	1830,033
363	2026,033
363,5	2268,633
364	2513,633
364,4	2848,233
364,9	3043,033
365,3	3321,433
365,8	3565,233
366,3	3852,033
366,7	4058,233
367,2	4214,233
367,6	4391,833
368,1	4522,633
368,5	4587,033
369	4636,033
369,5	4656,433
369,9	4586,833
370,4	4500,233
370,8	4417,633
371,3	4263,833
371,7	4142,833
372,2	3946,833
372,7	3701,833
373,1	3519,233
373,6	3311,633
374	3105,233
374,5	2900,833
374,9	2698,633
375,4	2463,033
375,9	2284,233
376,3	2116,033
376,8	1925,233
377,2	1805,433
377,7	1661,033
378,2	1482,633
378,6	1336,233
379,1	1234,033
379,5	1111,833
380	1032,033
380,4	945,833
380,9	857,233
381,4	799,833
381,8	718,633
382,3	680,833
382,7	588,033
383,2	592,433
383,6	554,833
384,1	490,233
384,6	457,433
385	416,433
385,5	375,233
385,9	360,633
386,4	337,233
386,8	316,433
387,3	275,833
387,7	279,433
388,2	257,633
388,7	229,233
389,1	217,633
389,6	212,033
390	205,633
390,5	184,633
390,9	130,833
391,4	129,233
391,9	118,233
392,3	141,833
392,8	90,433
393,2	116,033
393,7	78,633
394,1	90,033
394,6	85,233
395,1	67,633
395,5	77,833
396	52,433
396,4	82,833
396,9	59,633
397,3	60,033
397,8	76,633
398,2	54,233
398,7	61,633
399,2	37,833
399,6	35,633
400,1	19,233
400,5	34,633
401	42,433
401,4	37,633
401,9	20,833
402,4	18,633
402,8	15,633
403,3	22,633
403,7	22,433
404,2	34,033
404,6	13,233
405,1	37,233
405,5	14,633
406	19,433
406,5	7,633
406,9	20,033
407,4	26,433
407,8	18,833
408,3	21,433
408,7	20,633
409,2	27,233
409,6	-8,767
410,1	47,433
410,6	10,033
411	28,233
411,5	35,233
411,9	35,833
412,4	44,033
412,8	28,633
413,3	5,633
413,7	33,433
414,2	22,433
414,7	52,033
415,1	42,833
415,6	44,433
416	9,433
416,5	47,233
416,9	65,233
417,4	7,433
417,8	70,433
418,3	37,433
418,8	30,633
419,2	3,633
419,7	29,233
420,1	49,833
420,6	33,033
421	47,633
421,5	45,433
421,9	77,233
422,4	55,433
422,8	47,033
423,3	3,233
423,8	33,033
424,2	28,033
424,7	59,633
425,1	53,633
425,6	34,833
426	35,233
426,5	40,433
426,9	35,833
427,4	26,433
427,9	48,633
428,3	47,633
428,8	22,833
429,2	47,433
429,7	49,233
430,1	8,233
430,6	48,033
431	13,433
431,5	13,633
431,9	59,433
432,4	15,633
432,8	54,233
433,3	23,833
433,8	16,633
434,2	35,833
434,7	31,033
435,1	22,633
435,6	21,833
436	29,633
436,5	-2,767
436,9	26,033
437,4	17,433
437,8	38,833
438,3	16,433
438,8	-2,367
439,2	20,033
439,7	9,433
440,1	-11,767
440,6	19,033
441	7,633
441,5	7,433
441,9	14,033
442,4	20,233
442,8	-13,367
443,3	1,833
443,7	-1,167
444,2	-6,367
444,7	44,433
445,1	5,433
445,6	25,633
446	11,633
446,5	-20,767
446,9	32,833
447,4	5,233
447,8	12,433
448,3	21,633
448,7	26,233
449,2	-12,767
449,6	-3,967
450,1	14,233
450,6	-20,367
451	18,633
451,5	22,033
451,9	2,833
452,4	19,633
452,8	32,433
453,3	-17,767
453,7	26,433
454,2	-2,967
454,6	30,633
455,1	9,833
455,5	26,833
456	31,433
456,4	16,433
456,9	17,633
457,3	-21,567
457,8	28,833
458,3	8,233
458,7	12,233
459,2	16,633
459,6	41,833
460,1	-5,967
460,5	-3,167
461	-8,367
461,4	6,433
461,9	15,233
462,3	-1,167
462,8	-26,967
463,2	15,433
463,7	28,033
464,1	3,433
464,6	19,833
465	10,833
465,5	5,633
466	35,833
466,4	-7,367
466,9	-6,367
467,3	6,433
467,8	32,633
468,2	13,633
468,7	2,033
469,1	17,833
469,6	18,033
470	19,033
470,5	27,233
470,9	21,633
471,4	-16,967
471,8	-12,567
472,3	-2,967
472,7	18,033
473,2	13,033
473,6	16,033
474,1	12,033
474,5	34,433
475	-1,567
475,4	48,433
475,9	24,233
476,4	11,233
476,8	26,833
477,3	6,833
477,7	8,433
478,2	18,033
478,6	1,633
479,1	-20,367
479,5	4,833
480	13,433
480,4	0,833
480,9	13,033
481,3	12,433
481,8	21,433
482,2	3,233
482,7	11,633
483,1	13,233
483,6	15,433
484	-8,967
484,5	21,633
484,9	8,633
485,4	-5,967
485,8	77,433
486,3	17,433
486,7	2,433
487,2	16,033
487,6	23,633
488,1	9,033
488,5	23,033
489	-12,967
489,4	17,233
489,9	20,833
490,4	19,833
490,8	-9,967
491,3	41,833
491,7	18,033
492,2	14,633
492,6	35,433
493,1	-10,767
493,5	37,433
494	30,833
494,4	29,233
494,9	4,633
495,3	-15,967
495,8	40,433
496,2	-0,767
496,7	-20,367
497,1	22,833
497,6	4,833
498	48,033
498,5	-6,967
498,9	22,033
499,4	20,433
499,8	12,833
500,3	20,433
500,7	21,033
501,2	7,633
501,6	17,233
502,1	24,033
502,5	-18,967
503	52,633
503,4	-9,367
503,9	22,633
504,3	-10,767
504,8	25,633
505,2	-2,767
505,7	-1,167
506,1	-19,567
506,6	15,233
507	14,433
507,5	24,633
507,9	21,033
508,4	-0,567
508,8	37,633
509,3	-5,367
509,7	20,033
510,2	0,633
510,6	45,033
511,1	21,433
511,5	-9,567
512	11,433
512,4	10,833
512,9	-11,967
513,3	7,833
513,8	-35,167
514,2	9,033
514,7	8,033
515,1	21,833
515,6	30,433
516	26,833
516,5	-6,567
516,9	13,233
517,4	12,233
517,8	30,833
518,3	-8,367
518,7	15,633
519,2	9,233
519,6	3,433
520,1	0,633
520,5	6,833
521	19,233
521,4	-10,567
521,9	48,433
522,3	30,633
522,8	18,233
523,2	-2,167
523,7	-13,967
524,1	3,833
524,6	-23,567
525	23,233
525,5	13,233
525,9	-7,367
526,4	6,433
526,8	3,633
527,3	-31,367
527,7	-6,367
528,2	-9,167
528,6	24,033
529,1	23,833
529,5	-19,367
530	34,833
530,4	10,633
530,9	3,033
531,3	-2,367
531,8	-17,567
532,2	-19,367
532,6	9,433
533,1	-4,967
533,5	13,633
534	-11,367
534,4	13,433
534,9	-29,367
535,3	8,833
535,8	-9,967
536,2	-11,567
536,7	-14,167
537,1	16,433
537,6	-7,167
538	-5,767
538,5	1,233
538,9	49,033
539,4	-1,167
539,8	4,033
540,3	15,033
540,7	0,433
541,2	37,833
541,6	7,633
542,1	22,233
542,5	13,233
543	2,633
543,4	9,833
543,9	66,233
544,3	1,433
544,8	-36,167
545,2	32,033
545,7	8,433
546,1	23,633
546,5	10,833
547	14,033
547,4	23,033
547,9	15,233
548,3	18,033
548,8	-12,567
549,2	-4,767
549,7	12,433
550,1	-1,767
550,6	2,633
551	13,433
551,5	15,233
551,9	12,033
552,4	9,833
552,8	1,233
553,3	-14,967
553,7	10,233
554,2	-24,167
554,6	-7,167
555,1	-0,767
555,5	12,833
555,9	47,833
556,4	30,433
556,8	0,833
557,3	-0,767
557,7	-13,367
558,2	7,033
558,6	19,633
559,1	16,633
559,5	-9,167
560	-4,567
560,4	12,233
560,9	-6,567
561,3	19,033
561,8	10,633
562,2	-31,367
562,7	12,433
563,1	34,033
563,6	20,233
564	-2,367
564,4	19,233
564,9	0,833
565,3	9,233
565,8	13,433
566,2	-0,767
566,7	14,433
567,1	8,033
567,6	12,833
568	26,033
568,5	16,633
568,9	-7,567
569,4	20,233
569,8	-19,967
570,3	-10,767
570,7	20,633
571,1	5,233
571,6	28,033
572	7,633
572,5	-12,767
572,9	-5,167
573,4	5,033
573,8	-8,167
574,3	13,033
574,7	13,033
575,2	-0,167
575,6	9,033
576,1	-0,167
576,5	33,033
576,9	1,433
577,4	2,233
577,8	15,833
578,3	20,833
578,7	-28,567
579,2	0,433
579,6	4,633
580,1	-6,167
580,5	26,033
581	17,033
581,4	7,433
581,9	6,833
582,3	-6,567
582,7	22,433
583,2	-18,167
583,6	-10,367
584,1	-25,167
584,5	2,633
585	-2,167
585,4	-15,567
585,9	9,833
586,3	-0,367
586,8	29,633
587,2	-1,567
587,6	-10,967
588,1	-12,567
588,5	3,833
589	24,233
589,4	-1,967
589,9	16,433
590,3	19,433
590,8	16,033
591,2	18,233
591,7	18,833
592,1	16,233
592,5	-29,167
593	12,433
593,4	21,033
593,9	2,233
594,3	17,833
594,8	13,633
595,2	3,233
595,7	15,033
596,1	-18,567
596,6	5,233
597	2,433
597,4	11,233
597,9	6,433
598,3	4,033
598,8	24,833
599,2	21,433
599,7	-17,967
600,1	6,233
600,6	-4,167
601	26,633
601,4	-18,367
601,9	3,633
602,3	-14,967
602,8	-20,567
603,2	33,033
603,7	16,833
604,1	-0,567
604,6	19,033
605	-25,367
605,4	1,033
605,9	-24,767
606,3	-16,167
606,8	2,233
607,2	18,033
607,7	-7,167
608,1	-2,567
608,6	21,033
609	-19,967
609,4	-3,967
609,9	2,033
610,3	1,033
610,8	23,233
611,2	3,633
611,7	-21,167
612,1	9,233
612,6	-15,367
613	10,433
613,4	5,833
613,9	-25,967
614,3	-22,167
614,8	-13,567
615,2	26,433
615,7	9,833
616,1	30,033
616,6	17,233
617	-16,367
617,4	-19,567
617,9	8,633
618,3	-0,967
618,8	13,233
619,2	8,033
619,7	39,033
620,1	-5,367
620,5	-16,567
621	7,233
621,4	2,233
621,9	17,433
622,3	-3,167
622,8	9,833
623,2	30,033
623,6	4,033
624,1	13,033
624,5	18,233
625	15,233
625,4	14,833
625,9	5,833
626,3	8,033
626,8	5,633
627,2	6,033
627,6	18,633
628,1	11,033
628,5	11,833
629	-9,967
629,4	14,233
629,9	41,033
630,3	-12,767
630,7	6,433
631,2	26,633
631,6	6,033
632,1	-6,167
632,5	-23,167
633	15,633
633,4	-5,367
633,8	17,433
634,3	30,233
634,7	-1,567
635,2	5,033
635,6	-16,367
636,1	5,233
636,5	10,433
636,9	-20,567
637,4	-12,567
637,8	-2,567
638,3	-13,167
638,7	2,633
639,2	-10,767
639,6	-14,967
640	8,833
640,5	12,233
640,9	27,633
641,4	12,033
641,8	-2,567
642,2	2,633
642,7	1,833
643,1	-5,167
643,6	-0,767
644	7,033
644,5	16,833
644,9	-5,567
645,3	18,033
645,8	-8,367
646,2	28,433
646,7	0,033
647,1	17,433
647,6	6,033
648	-16,967
648,4	2,833
648,9	14,833
649,3	8,433
649,8	6,233
650,2	-15,767
650,6	16,833
651,1	-1,567
651,5	16,633
652	2,433
652,4	-18,767
652,9	10,033
653,3	20,433
653,7	-18,367
654,2	3,033
654,6	40,433
655,1	-18,767
655,5	-10,167
655,9	-32,367
656,4	-9,367
656,8	24,833
657,3	-23,567
657,7	0,833
658,2	32,033
658,6	7,633
659	8,633
659,5	-6,167
659,9	9,433
660,4	9,433
660,8	13,833
661,2	-16,767
661,7	17,033
662,1	-7,967
662,6	-0,167
663	17,633
663,4	21,433
663,9	-20,367
664,3	3,433
664,8	-1,767
665,2	20,033
665,6	24,033
666,1	-15,767
666,5	-4,567
667	-26,767
667,4	19,633
667,9	-8,367
668,3	15,633
668,7	-0,967
669,2	-14,367
669,6	9,633
670,1	-5,967
670,5	7,233
670,9	27,633
671,4	-16,367
671,8	0,633
672,3	11,233
672,7	39,433
673,1	-0,967
673,6	-12,967
674	28,833
674,5	14,833
674,9	-10,367
675,3	2,633
675,8	20,633
676,2	-1,367
676,7	-8,967
677,1	30,033
677,5	-8,767
678	26,233
678,4	27,433
678,9	25,833
679,3	-28,167
679,7	-13,567
680,2	24,433
680,6	-1,167
681,1	-1,767
681,5	10,833
681,9	-3,367
682,4	15,633
682,8	-1,367
683,3	-25,167
683,7	19,033
684,1	20,233
684,6	7,633
685	9,233
685,5	-31,567
685,9	9,433
686,3	0,233
686,8	-47,367
687,2	-0,767
687,7	-6,167
688,1	-7,767
688,5	25,433
689	-15,367
689,4	-13,767
689,9	18,033
690,3	12,833
690,7	-11,167
691,2	3,233
691,6	-11,767
692	22,633
692,5	-0,567
692,9	-1,767
693,4	2,433
693,8	1,033
694,2	-5,367
694,7	-6,367
695,1	12,833
695,6	-20,567
696	4,833
696,4	-14,367
696,9	3,833
697,3	11,833
697,8	7,033
698,2	11,633
698,6	26,233
699,1	-19,967
699,5	-2,567
699,9	-30,367
700,4	16,833
700,8	-15,567
701,3	42,633
701,7	17,433
702,1	-12,567
702,6	3,633
703	7,833
703,5	-10,367
703,9	-16,967
704,3	15,633
704,8	-25,567
705,2	-1,967
705,6	-2,567
706,1	-20,967
706,5	18,433
707	21,633
707,4	15,633
707,8	2,633
708,3	15,633
708,7	5,433
709,2	35,633
709,6	-11,167
710	6,233
710,5	-14,567
710,9	2,233
711,3	3,233
711,8	8,233
712,2	36,233
712,7	-0,367
713,1	-1,967
713,5	18,433
714	-5,767
714,4	1,633
714,8	1,833
715,3	35,033
715,7	28,233
716,2	9,033
716,6	38,633
717	-10,567
717,5	17,833
717,9	-2,367
718,3	-12,567
718,8	3,033
719,2	4,833
719,7	19,433
720,1	-4,167
720,5	-3,967
721	20,233
721,4	-5,967
721,8	19,633
722,3	33,433
722,7	18,633
723,2	34,233
723,6	7,233
724	16,033
724,5	-5,367
724,9	19,033
725,3	11,233
725,8	0,233
726,2	-3,567
726,7	-32,367
727,1	2,233
727,5	4,633
728	6,233
728,4	-4,567
728,8	38,633
729,3	14,833
729,7	-10,567
730,1	-5,367
730,6	2,633
731	-2,167
731,5	-11,967
731,9	12,833
732,3	-1,567
732,8	-5,967
733,2	7,033
733,6	-9,367
734,1	-0,367
734,5	22,033
734,9	14,633
735,4	-9,167
735,8	-12,367
736,3	-10,767
736,7	15,033
737,1	29,233
737,6	-0,567
738	-38,767
738,4	3,433
738,9	9,633
739,3	20,033
739,7	-1,767
740,2	16,833
740,6	-13,767
741,1	14,233
741,5	15,633
741,9	-34,167
742,4	-12,967
742,8	-17,367
743,2	-5,767
743,7	22,633
744,1	7,233
744,5	24,033
745	8,833
745,4	37,033
745,8	-0,567
746,3	-17,767
746,7	-9,967
747,2	-27,367
747,6	9,633
748	-13,167
748,5	-17,767
748,9	5,833
749,3	-15,767
749,8	29,233
750,2	-0,167
750,6	-25,967
751,1	-10,367
751,5	16,833
751,9	-30,767
752,4	7,433
752,8	-7,967
753,3	25,833
753,7	12,433
754,1	17,033
754,6	9,833
755	-4,767
755,4	3,033
755,9	26,033
756,3	-10,367
756,7	-12,367
757,2	-7,767
757,6	10,433
758	7,233
758,5	26,633
758,9	16,833
759,3	-8,967
759,8	-6,367
760,2	12,433
760,6	6,633
761,1	-0,167
761,5	-5,167
761,9	2,233
762,4	1,433
762,8	29,633
763,3	1,833
763,7	41,633
764,1	-21,167
764,6	32,033
765	-2,967
765,4	15,633
765,9	19,633
766,3	8,833
766,7	14,033
767,2	21,633
767,6	28,633
768	-6,967
768,5	0,833
768,9	19,433
769,3	13,233
769,8	-13,167
770,2	-21,767
770,6	-6,767
771,1	-7,167
771,5	0,833
771,9	15,433
772,4	12,233
772,8	-2,367
773,2	-17,367
773,7	-4,967
774,1	7,633
774,5	-15,167
775	0,633
775,4	-24,167
775,8	4,833
776,3	-13,167
776,7	14,433
777,1	12,633
777,6	3,233
778	3,833
778,4	-22,367
778,9	6,633
779,3	6,033
779,7	9,233
780,2	-7,567
780,6	-9,967
781	10,033
781,5	-8,567
781,9	12,033
782,3	-23,767
782,8	6,633
783,2	-1,967
783,6	9,833
784,1	6,633
784,5	-17,567
784,9	0,033
785,4	29,433
785,8	5,833
786,2	0,233
786,7	4,233
787,1	6,033
787,5	4,833
788	31,833
788,4	5,433
788,8	3,233
789,3	14,233
789,7	18,233
790,1	15,633
790,6	22,433
791	17,633
791,4	-1,767
791,9	19,633
792,3	8,433
792,7	3,033
793,2	-5,767
793,6	-12,967
794	21,433
794,5	10,033
794,9	17,033
795,3	-17,767
795,8	-2,567
796,2	23,233
796,6	-3,967
797,1	13,033
797,5	2,633
797,9	3,633
798,4	10,033
798,8	1,033
799,2	28,233
799,7	-21,167
800,1	-1,767
800,5	-3,167
801	-26,167
801,4	4,033
801,8	-13,167
802,2	16,033
802,7	-11,767
803,1	-6,567
803,5	21,033
804	-2,967
804,4	-2,967
804,8	-17,167
805,3	-36,967
805,7	-11,567
806,1	-24,167
806,6	12,033
807	9,633
807,4	6,233
807,9	0,633
808,3	10,433
808,7	-2,567
809,2	7,033
809,6	-5,767
810	-1,567
810,4	11,233
810,9	-2,767
811,3	15,233
811,7	-11,767
812,2	4,433
812,6	17,433
813	14,233
813,5	9,633
813,9	9,833
814,3	-2,967
814,8	-2,567
815,2	2,433
815,6	6,233
816,1	14,433
816,5	-15,967
816,9	9,433
817,3	-2,767
817,8	-40,367
818,2	21,633
818,6	-16,367
819,1	-20,967
819,5	41,233
819,9	-3,567
820,4	4,233
820,8	-30,367
821,2	-5,967
821,7	-14,967
822,1	17,233
822,5	11,433
822,9	-6,167
823,4	-8,367
823,8	-24,767
824,2	-29,767
824,7	5,833
825,1	-2,967
825,5	-3,767
826	-0,567
826,4	-0,167
826,8	23,433
827,3	29,033
827,7	15,033
828,1	-11,967
828,5	3,233
829	1,833
829,4	10,033
829,8	1,633
830,3	-22,967
830,7	2,433
831,1	-9,367
831,6	14,433
832	8,033
832,4	-2,967
832,8	17,233
833,3	-4,167
833,7	11,833
834,1	2,833
834,6	-4,767
835	0,633
835,4	-8,367
835,8	-17,767
836,3	7,233
836,7	15,033
837,1	-12,567
837,6	-32,567
838	31,633
838,4	-13,767
838,9	1,633
839,3	-0,367
839,7	-33,167
840,1	5,633
840,6	2,233
841	-29,167
841,4	-6,567
841,9	-8,567
842,3	39,633
842,7	1,033
843,1	23,233
843,6	-9,767
844	26,233
844,4	1,233
844,9	-8,367
845,3	4,033
845,7	-6,767
846,2	-17,967
846,6	16,833
847	-9,367
847,4	-19,967
847,9	4,833
848,3	23,233
848,7	-10,167
849,2	12,233
849,6	32,833
850	18,233
850,4	55,033
850,9	19,233
851,3	-6,967
851,7	22,233
852,2	19,233
852,6	1,433
853	-9,567
853,4	2,833
853,9	-18,767
854,3	-9,367
854,7	13,433
855,2	27,633
855,6	-5,567
856	6,433
856,4	7,233
856,9	13,433
857,3	-0,167
857,7	-16,567
858,2	-12,967
858,6	-6,167
859	5,633
859,4	15,033
859,9	10,633
860,3	-21,967
860,7	40,033
861,1	28,833
861,6	7,233
862	6,433
862,4	30,233
862,9	35,833
863,3	24,833
863,7	-2,367
864,1	8,633
864,6	13,633
865	26,233
865,4	11,833
865,9	1,833
866,3	1,833
866,7	13,633
867,1	-16,367
867,6	6,233
868	17,833
868,4	-1,167
868,8	21,633
869,3	23,833
869,7	-4,367
870,1	-0,567
870,6	18,433
871	-17,167
871,4	-0,567
871,8	44,633
872,3	-314,367
872,7	-33,967
873,1	21,833
873,5	46,433
874	14,633
874,4	-0,167
874,8	21,433
875,3	12,833
875,7	10,033
876,1	7,033
876,5	-18,167
877	6,433
877,4	4,433
877,8	24,633
878,2	-0,967
878,7	35,833
879,1	12,633
879,5	0,233
879,9	-20,967
880,4	26,033
880,8	-10,767
881,2	-0,167
881,7	22,633
882,1	-3,167
882,5	-12,567
882,9	-2,367
883,4	4,233
883,8	30,433
884,2	-21,567
884,6	-8,167
885,1	11,433
885,5	-2,967
885,9	-7,167
886,3	38,033
886,8	-10,367
887,2	-30,167
887,6	16,833
888	3,433
888,5	5,033
888,9	8,833
889,3	13,233
889,8	-19,167
890,2	9,633
890,6	3,633
891	-11,567
891,5	-10,967
891,9	-9,567
892,3	22,833
892,7	-13,567
893,2	-2,967
893,6	-6,967
894	31,433
894,4	5,033
894,9	-5,967
895,3	11,033
895,7	3,233
896,1	12,633
896,6	4,033
897	22,633
897,4	17,833
897,8	19,633
898,3	-32,767
898,7	7,033
899,1	14,433
899,5	-31,567
900	-13,167
900,4	-7,367
900,8	3,433
901,2	0,633
901,7	-8,767
902,1	5,633
902,5	34,433
902,9	-26,167
903,4	-0,767
903,8	-4,767
904,2	28,233
904,6	-12,167
905,1	-7,767
905,5	11,033
905,9	-4,567
906,3	30,033
906,8	-9,567
907,2	9,033
907,6	11,633
908	-6,167
908,5	17,433
908,9	-32,367
909,3	0,233
909,7	13,833
910,2	-3,767
910,6	18,833
911	3,433
911,4	10,233
911,9	14,433
912,3	9,833
912,7	38,433
913,1	-16,967
913,6	-11,367
914	-8,567
914,4	-23,167
914,8	-17,967
915,3	-25,767
915,7	23,433
916,1	11,033
916,5	-27,167
916,9	4,433
917,4	-24,167
917,8	-18,367
918,2	-11,367
918,6	-3,167
919,1	6,033
919,5	-23,567
919,9	-11,167
920,3	0,033
920,8	-12,167
921,2	21,033
921,6	4,033
922	1,433
922,5	33,233
922,9	-1,367
923,3	-10,167
923,7	5,633
924,2	-12,167
924,6	-14,967
925	33,833
925,4	22,233
925,8	-9,167
926,3	-19,967
926,7	-10,967
927,1	18,033
927,5	-0,967
928	11,433
928,4	7,433
928,8	-14,167
929,2	-0,767
929,7	-3,167
930,1	15,833
930,5	36,433
930,9	8,433
931,3	9,033
931,8	-12,767
932,2	14,233
932,6	3,233
933	-3,567
933,5	3,633
933,9	-17,767
934,3	-0,367
934,7	6,633
935,2	-0,367
935,6	21,433
936	15,433
936,4	4,633
936,8	29,033
937,3	-10,167
937,7	29,833
938,1	12,433
938,5	18,833
939	-27,767
939,4	9,433
939,8	4,633
940,2	-19,167
940,6	-3,367
941,1	-0,167
941,5	-7,167
941,9	24,433
942,3	-8,167
942,8	20,833
943,2	-18,567
943,6	-2,767
944	-10,767
944,4	-0,767
944,9	10,233
945,3	39,833
945,7	-13,167
946,1	25,233
946,6	7,033
947	-16,967
947,4	10,833
947,8	4,433
948,2	21,033
948,7	-25,567
949,1	12,233
949,5	-2,567
949,9	11,633
950,3	-27,367
950,8	16,233
951,2	33,433
951,6	6,033
952	10,433
952,5	-7,967
952,9	-12,367
953,3	-14,567
953,7	-11,167
954,1	-7,367
954,6	24,033
955	-1,567
955,4	21,633
955,8	-12,567
956,2	-18,567
956,7	-37,367
957,1	-5,967
957,5	20,833
957,9	24,633
958,3	0,233
958,8	2,433
959,2	23,833
959,6	-21,367
960	13,833
960,5	21,433
960,9	0,833
961,3	19,033
961,7	-29,567
962,1	18,033
962,6	37,233
963	-0,767
963,4	7,233
963,8	-5,167
964,2	3,433
964,7	12,233
965,1	10,233
965,5	15,233
965,9	-6,367
966,3	-0,567
966,8	-7,567
967,2	-11,367
967,6	16,833
968	8,633
968,4	-32,567
968,9	13,233
969,3	10,233
969,7	16,433
970,1	5,833
970,5	20,233
971	4,233
971,4	5,233
971,8	2,833
972,2	1,233
972,6	4,433
973,1	31,833
973,5	3,633
973,9	-9,167
974,3	17,833
974,7	17,033
975,2	1,633
975,6	3,033
976	27,833
976,4	27,833
976,8	-12,367
977,3	21,633
977,7	43,833
978,1	11,233
978,5	37,433
978,9	14,233
979,4	2,833
979,8	41,033
980,2	-11,967
980,6	36,433
981	-24,367
981,5	4,033
981,9	4,833
982,3	-23,967
982,7	23,833
983,1	11,433
983,6	-7,167
984	-1,367
984,4	4,633
984,8	-8,567
985,2	-21,167
985,6	21,633
986,1	15,033
986,5	10,233
986,9	-0,767
987,3	5,233
987,7	-9,567
988,2	19,233
988,6	21,633
989	-7,167
989,4	-10,767
989,8	-10,167
990,3	6,433
990,7	18,233
991,1	6,433
991,5	-0,167
991,9	5,833
992,3	14,633
992,8	22,633
993,2	28,033
993,6	-8,167
994	0,633
994,4	7,033
994,9	10,633
995,3	-0,567
995,7	-2,167
996,1	-8,967
996,5	3,833
996,9	-3,367
997,4	-18,367
997,8	-0,967
998,2	8,833
998,6	15,233
999	21,033
999,5	-3,367
999,9	8,233
1000,3	12,033
1000,7	4,033
1001,1	-1,767
1001,5	-28,767
1002	-23,967
1002,4	17,233
1002,8	26,033
1003,2	6,233
1003,6	11,833
1004	-5,967
1004,5	14,833
1004,9	23,633
1005,3	27,833
1005,7	-13,767
1006,1	20,233
1006,6	16,033
1007	5,633
1007,4	-5,167
1007,8	-0,567
1008,2	12,633
1008,6	47,433
1009,1	-10,167
1009,5	10,433
1009,9	-5,967
1010,3	-6,767
1010,7	-23,967
1011,1	-11,367
1011,6	0,433
1012	3,233
1012,4	-16,567
1012,8	26,833
1013,2	-0,167
1013,6	34,433
1014,1	-11,367
1014,5	27,833
1014,9	5,833
1015,3	-0,367
1015,7	-7,767
1016,1	3,033
1016,6	8,433
1017	3,033
1017,4	7,433
1017,8	-1,167
1018,2	14,633
1018,6	11,233
1019,1	-6,567
1019,5	-23,167
1019,9	-1,167
1020,3	-6,767
1020,7	3,233
1021,1	-16,767
1021,6	10,233
1022	-31,167
1022,4	8,233
1022,8	-21,967
1023,2	19,833
1023,6	-5,567
1024,1	-11,767
1024,5	-2,167
1024,9	26,033
1025,3	48,633
1025,7	7,633
1026,1	7,433
1026,6	-10,167
1027	16,033
1027,4	11,833
1027,8	8,233
1028,2	-0,967
1028,6	-10,367
1029	-13,367
1029,5	26,233
1029,9	-5,167
1030,3	16,633
1030,7	2,633
1031,1	29,033
1031,5	11,233
1032	0,833
1032,4	20,033
1032,8	27,033
1033,2	-36,367
1033,6	15,633
1034	13,033
1034,4	37,233
1034,9	-20,967
1035,3	-6,767
1035,7	-15,767
1036,1	15,833
1036,5	12,033
1036,9	7,233
1037,4	3,233
1037,8	-6,767
1038,2	-4,567
1038,6	-21,967
1039	-13,367
1039,4	14,033
1039,8	-4,367
1040,3	-2,367
1040,7	-12,167
1041,1	-14,567
1041,5	35,433
1041,9	20,433
1042,3	36,833
1042,7	-38,767
1043,2	-36,567
1043,6	18,233
1044	-15,567
1044,4	3,833
1044,8	2,233
1045,2	-28,767
1045,6	-4,167
1046,1	0,633
1046,5	1,833
1046,9	8,433
1047,3	-17,967
1047,7	11,433
1048,1	13,633
1048,5	1,233
1049	21,833
1049,4	-6,967
1049,8	-9,167
1050,2	26,433
1050,6	43,433
1051	-22,167
1051,4	8,233
1051,9	3,833
1052,3	-30,167
1052,7	-1,967
1053,1	-13,967
1053,5	12,633
1053,9	-0,567
1054,3	21,633
1054,8	-9,567
1055,2	-7,367
1055,6	55,833
1056	-18,367
1056,4	6,633
1056,8	6,833
1057,2	-10,367
1057,6	-9,567
1058,1	8,833
1058,5	21,433
1058,9	14,033
1059,3	21,233
1059,7	16,633
1060,1	16,833
1060,5	35,033
1061	29,633
1061,4	46,233
1061,8	9,833
1062,2	13,033
1062,6	9,033
1063	13,033
1063,4	5,233
1063,8	28,033
1064,3	-27,367
1064,7	23,433
1065,1	-11,167
1065,5	22,233
1065,9	16,033
1066,3	12,233
1066,7	0,433
1067,1	-10,767
1067,6	-14,967
1068	35,833
1068,4	15,833
1068,8	28,233
1069,2	9,033
1069,6	4,633
1070	-12,367
1070,4	-15,367
1070,9	14,833
1071,3	-1,967
1071,7	10,233
1072,1	8,033
1072,5	7,233
1072,9	19,833
1073,3	-3,367
1073,7	-18,167
1074,2	-15,767
1074,6	25,433
1075	3,233
1075,4	-18,367
1075,8	35,633
1076,2	0,433
1076,6	29,833
1077	21,833
1077,5	29,033
1077,9	-2,767
1078,3	2,833
1078,7	7,433
1079,1	7,833
1079,5	-2,367
1079,9	18,033
1080,3	3,233
1080,7	-7,167
1081,2	8,833
1081,6	-0,367
1082	38,833
1082,4	30,433
1082,8	3,033
1083,2	-44,167
1083,6	-2,367
1084	-7,367
1084,5	-24,767
1084,9	31,033
1085,3	10,833
1085,7	-18,967
1086,1	22,033
1086,5	-3,367
1086,9	-25,567
1087,3	10,033
1087,7	-21,967
1088,2	-28,967
1088,6	4,633
1089	19,833
1089,4	-20,967
1089,8	-9,167
1090,2	16,833
1090,6	9,433
1091	-1,767
1091,4	-23,767
1091,9	-0,967
1092,3	28,233
1092,7	-16,167
1093,1	-9,567
1093,5	3,833
1093,9	15,033
1094,3	-16,167
1094,7	47,633
1095,1	15,633
1095,5	-18,367
1096	-8,367
1096,4	9,833
1096,8	16,033
1097,2	-15,167
1097,6	19,633
1098	-5,567
1098,4	3,033
1098,8	16,633
1099,2	-0,767
1099,6	-15,367
1100,1	3,633
1100,5	3,433
1100,9	23,433
1101,3	14,433
1101,7	8,633
1102,1	-11,967
1102,5	12,033
1102,9	-4,567
1103,3	-10,767
1103,7	-1,767
1104,2	24,033
1104,6	12,033
1105	14,033
1105,4	17,233
1105,8	25,033
1106,2	14,433
1106,6	-6,167
1107	1,233
1107,4	-4,567
1107,8	-1,167
1108,3	0,833
