Data from Subt2_00036.txt Node
Date: Wed Aug 02 19:42:55 MSK 2023
User: vat
Spectrometer: MAYP114033
Trigger mode: 0
Integration Time (sec): 7,000000E-1
Scans to average: 5
Electric dark correction enabled: true
Nonlinearity correction enabled: false
Boxcar width: 0
XAxis mode: Wavelengths
Number of Pixels in Spectrum: 2068
>>>>>Begin Spectral Data<<<<<
199,4	0,167
199,9	-2,433
200,4	-1,233
200,8	-0,233
201,3	-6,033
201,8	-1,633
202,2	-47,033
202,7	12,767
203,2	21,967
203,6	-1,833
204,1	34,167
204,6	22,567
205	18,767
205,5	7,167
206	8,167
206,4	20,967
206,9	11,967
207,4	29,167
207,8	6,767
208,3	10,167
208,8	17,167
209,2	27,167
209,7	10,767
210,2	-4,833
210,6	8,967
211,1	6,767
211,5	-1,833
212	-22,433
212,5	8,167
212,9	-18,633
213,4	-3,833
213,9	17,567
214,3	34,967
214,8	38,967
215,3	15,767
215,7	7,367
216,2	15,367
216,7	12,567
217,1	-0,433
217,6	5,567
218,1	25,567
218,5	11,967
219	22,367
219,5	13,567
219,9	3,367
220,4	24,167
220,9	2,967
221,3	25,767
221,8	39,567
222,3	25,167
222,7	14,167
223,2	20,167
223,6	-1,833
224,1	15,767
224,6	11,367
225	10,567
225,5	-18,033
226	22,367
226,4	-20,033
226,9	20,767
227,4	-4,233
227,8	6,767
228,3	39,967
228,8	20,367
229,2	18,167
229,7	6,567
230,2	5,167
230,6	1,167
231,1	8,767
231,5	7,967
232	-4,833
232,5	9,367
232,9	3,167
233,4	6,967
233,9	33,367
234,3	4,967
234,8	2,967
235,3	26,567
235,7	16,767
236,2	0,567
236,7	7,767
237,1	6,967
237,6	14,567
238,1	21,367
238,5	19,167
239	-44,433
239,4	-31,033
239,9	-0,433
240,4	-14,833
240,8	2,367
241,3	7,767
241,8	28,167
242,2	-19,833
242,7	22,967
243,2	1,967
243,6	-2,633
244,1	-20,033
244,6	22,767
245	-0,233
245,5	12,367
245,9	32,367
246,4	14,767
246,9	-10,233
247,3	-2,833
247,8	-3,433
248,3	-0,633
248,7	9,967
249,2	3,367
249,7	-7,633
250,1	-13,033
250,6	28,567
251	-26,233
251,5	24,767
252	-6,033
252,4	-23,033
252,9	0,167
253,4	-5,633
253,8	9,967
254,3	0,967
254,8	24,967
255,2	2,367
255,7	2,567
256,1	10,967
256,6	14,767
257,1	10,967
257,5	-0,633
258	20,967
258,5	16,967
258,9	22,367
259,4	7,167
259,9	-7,233
260,3	-11,633
260,8	-8,433
261,2	14,767
261,7	12,567
262,2	2,367
262,6	12,367
263,1	15,367
263,6	-7,233
264	-11,833
264,5	27,367
264,9	9,167
265,4	24,767
265,9	34,967
266,3	-5,633
266,8	1,567
267,3	10,167
267,7	3,967
268,2	-1,033
268,7	6,967
269,1	15,767
269,6	11,967
270	10,167
270,5	19,167
271	13,767
271,4	-6,633
271,9	19,167
272,4	-7,433
272,8	-14,633
273,3	27,767
273,7	23,767
274,2	29,567
274,7	5,367
275,1	18,767
275,6	-20,033
276,1	-3,233
276,5	8,167
277	-21,433
277,4	-1,233
277,9	4,367
278,4	5,567
278,8	11,167
279,3	-7,233
279,8	13,967
280,2	14,167
280,7	12,967
281,1	17,367
281,6	-24,433
282,1	-2,433
282,5	16,367
283	-3,633
283,4	-12,633
283,9	13,167
284,4	25,967
284,8	-7,633
285,3	-16,833
285,8	1,567
286,2	16,567
286,7	-17,633
287,1	-2,233
287,6	16,767
288,1	57,767
288,5	7,367
289	11,567
289,5	9,767
289,9	5,567
290,4	49,567
290,8	-4,233
291,3	-5,233
291,8	5,567
292,2	-30,633
292,7	26,167
293,1	14,367
293,6	-12,033
294,1	21,967
294,5	-3,833
295	-10,833
295,5	13,767
295,9	34,767
296,4	33,367
296,8	-24,433
297,3	21,767
297,8	0,167
298,2	22,367
298,7	5,567
299,1	17,567
299,6	-14,433
300,1	9,167
300,5	11,167
301	23,167
301,5	-4,633
301,9	11,567
302,4	-35,233
302,8	-6,233
303,3	-11,233
303,8	19,567
304,2	7,167
304,7	23,567
305,1	3,367
305,6	29,967
306,1	1,167
306,5	18,167
307	-19,833
307,4	-3,433
307,9	0,367
308,4	22,167
308,8	-2,433
309,3	4,967
309,8	23,767
310,2	1,567
310,7	5,767
311,1	12,367
311,6	30,367
312,1	8,167
312,5	-8,033
313	-4,633
313,4	-15,633
313,9	-0,633
314,4	-3,433
314,8	25,567
315,3	12,767
315,7	5,367
316,2	-9,833
316,7	22,367
317,1	21,367
317,6	33,967
318	30,567
318,5	5,967
319	22,567
319,4	-1,833
319,9	-2,233
320,3	2,367
320,8	35,167
321,3	-14,433
321,7	25,167
322,2	-13,833
322,6	-10,433
323,1	18,367
323,6	17,767
324	-5,233
324,5	7,767
324,9	30,167
325,4	10,767
325,9	2,567
326,3	-4,633
326,8	41,167
327,2	34,767
327,7	-3,033
328,2	26,567
328,6	22,567
329,1	13,967
329,5	10,767
330	32,567
330,5	25,167
330,9	43,767
331,4	5,567
331,8	-2,233
332,3	15,967
332,8	31,567
333,2	-1,233
333,7	4,567
334,1	24,767
334,6	13,167
335,1	-6,433
335,5	17,567
336	19,767
336,4	10,167
336,9	24,167
337,4	12,567
337,8	28,767
338,3	18,567
338,7	38,567
339,2	4,567
339,7	23,167
340,1	-18,633
340,6	47,967
341	55,967
341,5	13,767
342	1,567
342,4	27,767
342,9	46,167
343,3	37,167
343,8	68,367
344,2	47,967
344,7	35,767
345,2	39,567
345,6	33,367
346,1	25,967
346,5	45,367
347	7,767
347,5	49,567
347,9	51,967
348,4	51,167
348,8	47,167
349,3	66,567
349,8	64,567
350,2	53,967
350,7	108,367
351,1	103,367
351,6	116,767
352	174,167
352,5	166,567
353	227,767
353,4	252,767
353,9	323,167
354,3	409,767
354,8	496,767
355,3	604,167
355,7	715,567
356,2	817,967
356,6	998,367
357,1	1203,967
357,5	1433,567
358	1666,367
358,5	1935,967
358,9	2256,167
359,4	2639,567
359,8	3078,567
360,3	3484,167
360,8	4027,767
361,2	4633,167
361,7	5276,967
362,1	6045,767
362,6	6839,567
363	7688,567
363,5	8576,567
364	9532,767
364,4	10546,567
364,9	11521,167
365,3	12527,167
365,8	13466,167
366,3	14488,967
366,7	15304,967
367,2	16041,567
367,6	16617,767
368,1	16977,567
368,5	17393,367
369	17508,967
369,5	17521,967
369,9	17462,767
370,4	17076,567
370,8	16762,967
371,3	16206,767
371,7	15675,567
372,2	14901,767
372,7	14163,367
373,1	13454,567
373,6	12647,567
374	11755,567
374,5	10958,767
374,9	10193,767
375,4	9481,567
375,9	8740,567
376,3	8127,567
376,8	7393,167
377,2	6828,567
377,7	6264,967
378,2	5734,767
378,6	5204,967
379,1	4773,567
379,5	4367,967
380	3968,367
380,4	3660,767
380,9	3352,567
381,4	3058,367
381,8	2836,167
382,3	2620,167
382,7	2407,367
383,2	2223,767
383,6	2089,567
384,1	1901,167
384,6	1761,567
385	1633,367
385,5	1490,567
385,9	1423,767
386,4	1293,567
386,8	1235,567
387,3	1127,167
387,7	1056,167
388,2	952,767
388,7	899,567
389,1	827,967
389,6	787,767
390	704,967
390,5	649,367
390,9	590,167
391,4	578,567
391,9	514,967
392,3	514,167
392,8	400,767
393,2	410,367
393,7	380,167
394,1	363,767
394,6	318,967
395,1	325,767
395,5	298,567
396	274,767
396,4	276,967
396,9	210,767
397,3	219,367
397,8	221,567
398,2	217,767
398,7	208,767
399,2	173,967
399,6	152,167
400,1	154,367
400,5	156,367
401	84,567
401,4	131,967
401,9	127,767
402,4	110,567
402,8	125,767
403,3	101,767
403,7	116,967
404,2	80,767
404,6	70,167
405,1	97,767
405,5	103,767
406	96,167
406,5	69,167
406,9	82,567
407,4	65,367
407,8	47,567
408,3	42,367
408,7	69,167
409,2	82,367
409,6	83,767
410,1	60,767
410,6	72,767
411	94,367
411,5	72,367
411,9	44,767
412,4	99,967
412,8	77,567
413,3	81,967
413,7	66,367
414,2	53,367
414,7	50,767
415,1	55,767
415,6	30,567
416	48,767
416,5	50,567
416,9	71,567
417,4	53,367
417,8	46,767
418,3	30,367
418,8	57,767
419,2	47,167
419,7	34,567
420,1	22,367
420,6	45,567
421	56,767
421,5	73,367
421,9	64,367
422,4	38,767
422,8	21,767
423,3	41,567
423,8	42,167
424,2	59,967
424,7	31,367
425,1	58,367
425,6	51,767
426	62,967
426,5	29,367
426,9	54,967
427,4	22,967
427,9	61,167
428,3	40,567
428,8	24,367
429,2	17,567
429,7	12,367
430,1	27,967
430,6	50,167
431	29,367
431,5	10,367
431,9	41,367
432,4	18,567
432,8	57,567
433,3	32,767
433,8	37,167
434,2	13,567
434,7	42,767
435,1	21,167
435,6	46,567
436	51,767
436,5	27,767
436,9	-7,433
437,4	61,567
437,8	16,967
438,3	47,767
438,8	-13,033
439,2	37,367
439,7	29,967
440,1	-16,033
440,6	14,767
441	-1,233
441,5	15,167
441,9	3,967
442,4	13,167
442,8	7,967
443,3	18,967
443,7	10,367
444,2	-10,833
444,7	-7,833
445,1	2,567
445,6	17,967
446	25,767
446,5	26,767
446,9	4,367
447,4	6,367
447,8	18,967
448,3	46,567
448,7	22,767
449,2	28,167
449,6	29,767
450,1	12,967
450,6	-3,633
451	16,367
451,5	23,367
451,9	20,767
452,4	30,167
452,8	31,367
453,3	14,567
453,7	-0,233
454,2	36,967
454,6	29,367
455,1	12,167
455,5	31,167
456	24,167
456,4	15,367
456,9	2,967
457,3	16,367
457,8	7,967
458,3	-6,433
458,7	17,767
459,2	9,967
459,6	18,367
460,1	7,967
460,5	-10,233
461	12,367
461,4	12,367
461,9	43,367
462,3	14,767
462,8	-3,233
463,2	-1,433
463,7	13,367
464,1	24,767
464,6	-0,833
465	-12,433
465,5	11,367
466	20,367
466,4	14,167
466,9	29,367
467,3	1,167
467,8	-9,233
468,2	41,567
468,7	29,367
469,1	-0,033
469,6	31,967
470	47,567
470,5	8,767
470,9	15,767
471,4	7,367
471,8	10,567
472,3	7,367
472,7	1,567
473,2	17,767
473,6	32,167
474,1	-0,433
474,5	1,567
475	4,567
475,4	13,567
475,9	16,767
476,4	22,167
476,8	2,567
477,3	0,367
477,7	12,367
478,2	22,167
478,6	34,967
479,1	5,967
479,5	18,767
480	9,967
480,4	24,767
480,9	31,767
481,3	12,367
481,8	27,367
482,2	25,167
482,7	7,567
483,1	-25,033
483,6	13,567
484	26,567
484,5	-25,433
484,9	11,567
485,4	49,767
485,8	9,967
486,3	1,767
486,7	-9,633
487,2	7,367
487,6	-11,433
488,1	12,967
488,5	33,767
489	24,167
489,4	20,367
489,9	-10,833
490,4	40,967
490,8	17,367
491,3	16,767
491,7	2,367
492,2	-4,833
492,6	36,967
493,1	-3,033
493,5	6,767
494	14,767
494,4	-2,233
494,9	30,967
495,3	1,167
495,8	23,767
496,2	5,167
496,7	0,367
497,1	31,167
497,6	16,967
498	-4,833
498,5	25,567
498,9	-10,433
499,4	7,167
499,8	1,367
500,3	20,967
500,7	-1,633
501,2	3,167
501,6	16,767
502,1	23,767
502,5	6,767
503	6,367
503,4	6,367
503,9	25,767
504,3	43,767
504,8	9,167
505,2	31,367
505,7	-14,633
506,1	26,567
506,6	4,367
507	13,767
507,5	-1,033
507,9	30,367
508,4	-15,033
508,8	-2,033
509,3	-3,633
509,7	4,167
510,2	6,767
510,6	14,167
511,1	34,567
511,5	9,367
512	9,367
512,4	32,567
512,9	17,367
513,3	7,767
513,8	5,767
514,2	-30,033
514,7	14,967
515,1	17,167
515,6	-3,433
516	42,967
516,5	12,367
516,9	15,967
517,4	0,767
517,8	16,567
518,3	13,567
518,7	17,767
519,2	13,367
519,6	-9,233
520,1	15,567
520,5	15,767
521	14,767
521,4	2,167
521,9	3,767
522,3	20,167
522,8	8,567
523,2	-5,033
523,7	0,367
524,1	1,567
524,6	-17,033
525	-1,033
525,5	18,567
525,9	22,967
526,4	39,567
526,8	4,967
527,3	27,567
527,7	-5,833
528,2	-2,633
528,6	8,767
529,1	-22,433
529,5	19,767
530	6,967
530,4	8,367
530,9	31,567
531,3	36,367
531,8	6,167
532,2	6,767
532,6	0,767
533,1	-9,433
533,5	18,767
534	-5,233
534,4	26,167
534,9	6,767
535,3	-0,033
535,8	31,967
536,2	19,967
536,7	-0,233
537,1	-16,033
537,6	-7,633
538	-19,233
538,5	-0,633
538,9	15,167
539,4	-11,833
539,8	23,167
540,3	-9,233
540,7	0,167
541,2	43,967
541,6	1,367
542,1	-9,833
542,5	10,167
543	8,567
543,4	20,367
543,9	3,767
544,3	3,967
544,8	29,167
545,2	12,367
545,7	27,567
546,1	-5,833
546,5	15,767
547	8,167
547,4	-28,633
547,9	12,367
548,3	-6,633
548,8	5,767
549,2	14,767
549,7	7,367
550,1	-5,033
550,6	20,967
551	21,767
551,5	-4,633
551,9	1,167
552,4	-9,833
552,8	-24,033
553,3	11,767
553,7	1,567
554,2	21,967
554,6	7,767
555,1	41,967
555,5	-9,833
555,9	3,767
556,4	-1,033
556,8	0,367
557,3	-8,833
557,7	5,767
558,2	-10,433
558,6	17,567
559,1	-7,833
559,5	24,767
560	-3,833
560,4	23,167
560,9	-4,033
561,3	9,167
561,8	1,967
562,2	18,167
562,7	27,367
563,1	22,367
563,6	2,767
564	-2,433
564,4	7,167
564,9	18,767
565,3	-18,033
565,8	7,167
566,2	38,967
566,7	26,967
567,1	13,367
567,6	1,167
568	17,367
568,5	10,167
568,9	18,767
569,4	38,367
569,8	14,567
570,3	-3,833
570,7	39,367
571,1	-3,433
571,6	20,767
572	-0,233
572,5	13,367
572,9	-1,633
573,4	-4,833
573,8	3,567
574,3	-8,833
574,7	9,967
575,2	10,167
575,6	-2,833
576,1	11,767
576,5	8,967
576,9	1,167
577,4	-26,233
577,8	17,567
578,3	19,367
578,7	-2,833
579,2	43,567
579,6	28,767
580,1	9,967
580,5	33,767
581	-11,633
581,4	29,767
581,9	-2,433
582,3	12,367
582,7	15,967
583,2	-18,633
583,6	5,767
584,1	34,767
584,5	0,567
585	-4,433
585,4	35,167
585,9	50,767
586,3	39,367
586,8	-6,033
587,2	-16,433
587,6	22,967
588,1	6,967
588,5	2,967
589	-14,033
589,4	3,967
589,9	-2,633
590,3	17,767
590,8	-14,233
591,2	11,567
591,7	25,967
592,1	8,367
592,5	-0,433
593	-2,233
593,4	33,367
593,9	-3,233
594,3	18,567
594,8	11,567
595,2	13,167
595,7	13,567
596,1	0,367
596,6	12,767
597	-10,833
597,4	15,567
597,9	5,967
598,3	-5,833
598,8	23,767
599,2	20,167
599,7	-29,633
600,1	3,767
600,6	3,967
601	14,167
601,4	57,767
601,9	3,767
602,3	27,567
602,8	27,967
603,2	16,567
603,7	-7,633
604,1	-2,433
604,6	-11,233
605	1,967
605,4	-2,833
605,9	23,767
606,3	27,567
606,8	9,967
607,2	11,967
607,7	-2,833
608,1	-11,033
608,6	8,967
609	-1,033
609,4	14,167
609,9	-24,033
610,3	21,967
610,8	2,167
611,2	-2,033
611,7	-20,633
612,1	33,567
612,6	10,767
613	-0,633
613,4	16,167
613,9	13,367
614,3	3,567
614,8	-15,633
615,2	0,167
615,7	-4,833
616,1	3,567
616,6	0,167
617	18,367
617,4	31,167
617,9	-0,433
618,3	27,167
618,8	-13,833
619,2	1,967
619,7	-6,633
620,1	-20,833
620,5	-9,433
621	10,967
621,4	34,367
621,9	4,967
622,3	-11,433
622,8	-1,633
623,2	46,567
623,6	10,167
624,1	1,967
624,5	-11,633
625	13,167
625,4	-18,033
625,9	41,767
626,3	16,167
626,8	15,367
627,2	0,967
627,6	-4,633
628,1	19,367
628,5	-34,033
629	31,567
629,4	11,367
629,9	2,967
630,3	2,767
630,7	3,167
631,2	19,567
631,6	-6,433
632,1	-13,233
632,5	10,167
633	0,767
633,4	29,967
633,8	11,167
634,3	13,167
634,7	-6,033
635,2	-20,033
635,6	4,367
636,1	31,967
636,5	-1,633
636,9	7,167
637,4	5,567
637,8	14,167
638,3	-2,833
638,7	8,967
639,2	-1,033
639,6	0,767
640	2,967
640,5	-2,033
640,9	18,767
641,4	-16,433
641,8	10,767
642,2	-27,833
642,7	-19,433
643,1	2,367
643,6	9,167
644	-10,433
644,5	3,367
644,9	28,167
645,3	31,167
645,8	-20,633
646,2	-2,033
646,7	-34,233
647,1	-15,233
647,6	7,967
648	6,967
648,4	24,767
648,9	-28,833
649,3	-24,233
649,8	-5,033
650,2	-9,433
650,6	11,767
651,1	-0,433
651,5	3,967
652	4,167
652,4	-9,033
652,9	-20,433
653,3	31,767
653,7	-11,233
654,2	9,367
654,6	33,567
655,1	23,767
655,5	14,167
655,9	24,967
656,4	-1,833
656,8	-0,033
657,3	-3,433
657,7	7,567
658,2	-31,233
658,6	3,767
659	-21,833
659,5	33,767
659,9	15,567
660,4	15,367
660,8	-15,833
661,2	-9,233
661,7	44,967
662,1	34,167
662,6	18,767
663	26,367
663,4	35,367
663,9	34,767
664,3	43,767
664,8	22,167
665,2	44,567
665,6	6,567
666,1	-3,233
666,5	13,167
667	-11,033
667,4	16,767
667,9	-5,433
668,3	-11,233
668,7	14,767
669,2	25,967
669,6	13,967
670,1	-8,833
670,5	-14,033
670,9	-4,633
671,4	-11,233
671,8	0,767
672,3	13,567
672,7	17,767
673,1	-20,433
673,6	2,167
674	40,967
674,5	2,167
674,9	5,567
675,3	-20,433
675,8	5,167
676,2	30,767
676,7	6,167
677,1	-6,033
677,5	3,367
678	7,767
678,4	27,567
678,9	8,367
679,3	24,567
679,7	-22,833
680,2	14,367
680,6	37,567
681,1	32,567
681,5	24,767
681,9	24,767
682,4	16,967
682,8	8,167
683,3	23,167
683,7	21,567
684,1	-16,433
684,6	0,967
685	1,367
685,5	21,967
685,9	14,967
686,3	-9,633
686,8	1,367
687,2	17,567
687,7	2,367
688,1	18,167
688,5	8,167
689	-34,033
689,4	19,967
689,9	-22,633
690,3	-8,233
690,7	14,567
691,2	-20,233
691,6	-1,633
692	22,767
692,5	1,367
692,9	15,367
693,4	-7,833
693,8	-3,633
694,2	10,167
694,7	-3,033
695,1	8,367
695,6	33,767
696	-3,833
696,4	14,367
696,9	16,967
697,3	-11,033
697,8	2,767
698,2	1,767
698,6	1,567
699,1	-8,033
699,5	23,767
699,9	21,967
700,4	1,567
700,8	-9,433
701,3	13,567
701,7	-28,633
702,1	3,167
702,6	28,767
703	1,967
703,5	-16,033
703,9	-8,233
704,3	7,767
704,8	-14,233
705,2	31,567
705,6	-14,233
706,1	8,367
706,5	39,167
707	23,567
707,4	-22,033
707,8	5,167
708,3	2,967
708,7	24,767
709,2	-15,633
709,6	36,367
710	14,367
710,5	25,367
710,9	-1,033
711,3	-3,233
711,8	10,967
712,2	13,367
712,7	10,167
713,1	4,567
713,5	-20,633
714	24,767
714,4	34,567
714,8	-0,433
715,3	-18,433
715,7	24,167
716,2	-7,033
716,6	-3,633
717	-4,033
717,5	-6,433
717,9	-13,633
718,3	-3,233
718,8	6,767
719,2	-5,433
719,7	-23,233
720,1	11,767
720,5	12,967
721	16,767
721,4	7,767
721,8	7,767
722,3	-7,633
722,7	22,967
723,2	0,367
723,6	-35,233
724	20,167
724,5	21,567
724,9	3,167
725,3	2,167
725,8	-15,633
726,2	4,567
726,7	21,367
727,1	16,367
727,5	9,167
728	-15,633
728,4	26,767
728,8	-4,233
729,3	10,967
729,7	-2,633
730,1	-16,433
730,6	-11,233
731	-15,633
731,5	6,367
731,9	11,967
732,3	-10,233
732,8	7,567
733,2	14,767
733,6	15,767
734,1	16,967
734,5	26,967
734,9	-9,033
735,4	-7,433
735,8	23,967
736,3	-3,033
736,7	28,967
737,1	18,367
737,6	17,167
738	-2,233
738,4	3,767
738,9	16,767
739,3	16,567
739,7	-8,233
740,2	-2,433
740,6	11,967
741,1	11,767
741,5	10,767
741,9	21,367
742,4	4,167
742,8	-22,233
743,2	39,567
743,7	-23,033
744,1	10,767
744,5	-24,033
745	22,367
745,4	17,567
745,8	16,167
746,3	11,167
746,7	20,967
747,2	-19,033
747,6	-1,233
748	-5,233
748,5	-14,833
748,9	-7,033
749,3	22,167
749,8	-0,233
750,2	-3,833
750,6	2,167
751,1	-10,233
751,5	8,567
751,9	10,367
752,4	-19,833
752,8	-11,233
753,3	-3,833
753,7	17,567
754,1	6,167
754,6	14,167
755	-1,833
755,4	-0,833
755,9	24,967
756,3	-7,633
756,7	-25,233
757,2	4,167
757,6	-0,033
758	-12,433
758,5	-6,033
758,9	6,367
759,3	18,767
759,8	6,167
760,2	-19,033
760,6	-21,233
761,1	-46,433
761,5	24,167
761,9	2,767
762,4	-23,633
762,8	12,367
763,3	-16,433
763,7	1,167
764,1	-9,433
764,6	10,567
765	-16,633
765,4	-0,833
765,9	13,567
766,3	-16,233
766,7	15,567
767,2	35,767
767,6	7,367
768	21,167
768,5	17,167
768,9	12,167
769,3	-1,833
769,8	33,967
770,2	-35,433
770,6	5,767
771,1	27,167
771,5	-2,633
771,9	-10,233
772,4	18,167
772,8	5,367
773,2	-6,433
773,7	4,567
774,1	-1,233
774,5	15,767
775	27,967
775,4	-1,033
775,8	2,167
776,3	-10,633
776,7	-7,833
777,1	-20,233
777,6	7,167
778	-20,633
778,4	14,767
778,9	1,967
779,3	20,767
779,7	-10,433
780,2	1,967
780,6	-7,233
781	15,367
781,5	2,167
781,9	9,167
782,3	39,967
782,8	51,367
783,2	12,967
783,6	19,567
784,1	28,967
784,5	-50,233
784,9	-1,433
785,4	14,767
785,8	2,967
786,2	23,567
786,7	1,967
787,1	36,567
787,5	3,167
788	-10,833
788,4	12,167
788,8	0,967
789,3	-11,033
789,7	15,167
790,1	33,767
790,6	-4,433
791	38,367
791,4	27,767
791,9	30,367
792,3	9,767
792,7	10,167
793,2	25,767
793,6	-24,433
794	21,567
794,5	-17,633
794,9	-3,433
795,3	-2,233
795,8	13,567
796,2	-9,833
796,6	0,967
797,1	-6,233
797,5	9,567
797,9	7,167
798,4	-14,233
798,8	-7,433
799,2	-0,233
799,7	32,567
800,1	-16,233
800,5	2,367
801	11,767
801,4	9,567
801,8	3,767
802,2	11,167
802,7	-46,033
803,1	-1,433
803,5	-26,433
804	1,567
804,4	9,767
804,8	12,167
805,3	2,367
805,7	-3,433
806,1	10,367
806,6	8,167
807	-11,633
807,4	6,167
807,9	-6,833
808,3	-6,233
808,7	14,967
809,2	-1,033
809,6	3,567
810	4,367
810,4	2,367
810,9	19,567
811,3	8,567
811,7	6,567
812,2	4,167
812,6	23,167
813	9,367
813,5	18,567
813,9	-1,433
814,3	-29,233
814,8	-15,233
815,2	1,567
815,6	-12,433
816,1	-2,833
816,5	-14,433
816,9	8,167
817,3	-19,033
817,8	15,567
818,2	7,767
818,6	13,767
819,1	33,767
819,5	-11,233
819,9	29,967
820,4	-16,433
820,8	9,167
821,2	22,967
821,7	4,767
822,1	11,767
822,5	23,967
822,9	21,567
823,4	-15,233
823,8	-1,433
824,2	-4,433
824,7	-9,233
825,1	-3,833
825,5	-16,033
826	-13,033
826,4	-4,433
826,8	13,767
827,3	13,167
827,7	0,967
828,1	-16,433
828,5	9,767
829	14,167
829,4	7,967
829,8	7,167
830,3	5,367
830,7	-13,233
831,1	-23,033
831,6	-10,033
832	5,967
832,4	11,367
832,8	10,567
833,3	9,367
833,7	14,967
834,1	-6,233
834,6	-25,433
835	13,367
835,4	-5,633
835,8	9,167
836,3	61,767
836,7	6,967
837,1	41,567
837,6	3,767
838	-9,833
838,4	10,367
838,9	-20,833
839,3	-3,833
839,7	-4,233
840,1	-30,233
840,6	5,567
841	17,367
841,4	-5,833
841,9	-1,433
842,3	20,167
842,7	-14,233
843,1	-24,033
843,6	19,167
844	16,167
844,4	9,567
844,9	18,567
845,3	-20,033
845,7	25,767
846,2	19,367
846,6	4,167
847	3,767
847,4	-2,633
847,9	16,367
848,3	17,767
848,7	62,767
849,2	16,167
849,6	5,567
850	-1,033
850,4	-2,233
850,9	11,167
851,3	8,567
851,7	8,567
852,2	-19,233
852,6	-29,433
853	9,167
853,4	-4,433
853,9	1,167
854,3	18,767
854,7	-14,233
855,2	18,567
855,6	-22,033
856	15,767
856,4	-17,033
856,9	31,367
857,3	2,967
857,7	22,167
858,2	17,567
858,6	14,167
859	16,167
859,4	-3,833
859,9	25,767
860,3	-17,833
860,7	-0,633
861,1	21,767
861,6	28,967
862	-9,833
862,4	-4,233
862,9	-3,033
863,3	-2,433
863,7	-1,233
864,1	0,967
864,6	24,767
865	4,767
865,4	6,167
865,9	11,767
866,3	9,967
866,7	-0,033
867,1	-26,233
867,6	12,967
868	26,767
868,4	13,367
868,8	-18,033
869,3	39,567
869,7	9,967
870,1	-16,633
870,6	13,367
871	8,967
871,4	26,367
871,8	6,367
872,3	165,967
872,7	8,767
873,1	4,767
873,5	-8,233
874	3,167
874,4	-10,033
874,8	9,167
875,3	1,367
875,7	-6,833
876,1	-5,833
876,5	10,767
877	-15,033
877,4	18,967
877,8	11,767
878,2	23,167
878,7	10,367
879,1	-23,833
879,5	-25,433
879,9	10,767
880,4	6,967
880,8	-17,833
881,2	-22,433
881,7	4,167
882,1	5,367
882,5	-16,233
882,9	32,967
883,4	30,167
883,8	28,367
884,2	-1,833
884,6	-2,633
885,1	11,367
885,5	-22,433
885,9	20,567
886,3	-0,233
886,8	5,767
887,2	4,367
887,6	26,567
888	43,967
888,5	-0,833
888,9	-25,033
889,3	-5,033
889,8	3,167
890,2	12,567
890,6	16,767
891	17,367
891,5	-3,033
891,9	-6,433
892,3	16,567
892,7	6,767
893,2	28,367
893,6	-4,633
894	20,767
894,4	10,967
894,9	9,567
895,3	28,167
895,7	19,567
896,1	-4,833
896,6	5,967
897	-0,033
897,4	-27,033
897,8	-24,633
898,3	-14,833
898,7	2,567
899,1	8,567
899,5	6,167
900	16,567
900,4	23,567
900,8	3,767
901,2	29,967
901,7	3,967
902,1	-21,633
902,5	-16,833
902,9	20,567
903,4	6,967
903,8	-12,633
904,2	8,967
904,6	8,167
905,1	7,767
905,5	0,367
905,9	38,967
906,3	1,567
906,8	-5,233
907,2	2,967
907,6	2,567
908	26,567
908,5	-20,233
908,9	-6,833
909,3	10,367
909,7	4,967
910,2	-27,433
910,6	16,367
911	32,567
911,4	15,367
911,9	-12,033
912,3	-11,833
912,7	5,567
913,1	7,167
913,6	0,167
914	-8,033
914,4	-18,033
914,8	-4,633
915,3	-6,033
915,7	10,567
916,1	30,167
916,5	-11,633
916,9	35,567
917,4	13,967
917,8	7,967
918,2	16,167
918,6	10,367
919,1	-20,433
919,5	-15,633
919,9	15,567
920,3	-5,033
920,8	2,167
921,2	10,967
921,6	-15,433
922	7,567
922,5	26,967
922,9	23,367
923,3	-24,833
923,7	0,967
924,2	9,767
924,6	16,567
925	-25,233
925,4	7,567
925,8	-3,433
926,3	40,167
926,7	11,567
927,1	31,367
927,5	31,567
928	-10,633
928,4	29,567
928,8	15,567
929,2	7,767
929,7	9,167
930,1	-5,433
930,5	-0,033
930,9	6,567
931,3	-1,433
931,8	-3,233
932,2	26,367
932,6	0,567
933	39,567
933,5	10,967
933,9	17,567
934,3	5,767
934,7	4,567
935,2	34,767
935,6	-27,233
936	18,767
936,4	10,967
936,8	-17,033
937,3	11,767
937,7	-2,633
938,1	-6,033
938,5	-20,233
939	-11,633
939,4	-4,833
939,8	17,967
940,2	-17,833
940,6	-0,033
941,1	-4,833
941,5	-2,233
941,9	1,167
942,3	8,767
942,8	-0,433
943,2	11,567
943,6	-4,433
944	14,767
944,4	-1,433
944,9	6,567
945,3	-6,633
945,7	-16,033
946,1	46,167
946,6	25,767
947	-8,033
947,4	8,967
947,8	19,967
948,2	-5,233
948,7	-5,633
949,1	29,967
949,5	-7,033
949,9	24,967
950,3	-9,233
950,8	12,167
951,2	11,967
951,6	-25,033
952	7,767
952,5	41,367
952,9	20,767
953,3	18,567
953,7	32,967
954,1	0,767
954,6	-4,233
955	-9,233
955,4	39,967
955,8	-30,233
956,2	14,567
956,7	-9,833
957,1	-15,833
957,5	10,367
957,9	-0,233
958,3	-22,233
958,8	4,567
959,2	-19,433
959,6	-7,233
960	13,767
960,5	14,767
960,9	11,567
961,3	22,167
961,7	-9,833
962,1	-21,833
962,6	25,767
963	10,967
963,4	13,967
963,8	17,367
964,2	12,167
964,7	-16,033
965,1	8,567
965,5	7,767
965,9	-7,433
966,3	19,767
966,8	4,767
967,2	-2,433
967,6	6,567
968	-18,033
968,4	-12,833
968,9	2,567
969,3	7,567
969,7	-5,233
970,1	16,567
970,5	-3,433
971	6,367
971,4	12,167
971,8	32,967
972,2	5,167
972,6	1,967
973,1	15,767
973,5	13,167
973,9	11,167
974,3	1,167
974,7	-7,433
975,2	14,567
975,6	3,567
976	-25,433
976,4	17,967
976,8	-13,633
977,3	2,167
977,7	-8,033
978,1	14,967
978,5	6,567
978,9	-1,233
979,4	7,567
979,8	-0,033
980,2	11,567
980,6	33,767
981	-6,833
981,5	4,567
981,9	-18,433
982,3	-5,633
982,7	25,567
983,1	16,167
983,6	21,167
984	18,567
984,4	19,567
984,8	0,567
985,2	-7,833
985,6	-1,833
986,1	-20,833
986,5	-19,033
986,9	5,967
987,3	-2,033
987,7	7,367
988,2	-22,633
988,6	13,367
989	16,367
989,4	-17,433
989,8	-9,433
990,3	0,967
990,7	6,167
991,1	-14,033
991,5	-11,833
991,9	22,167
992,3	-16,633
992,8	8,567
993,2	28,567
993,6	13,967
994	-21,833
994,4	-17,033
994,9	10,967
995,3	21,567
995,7	24,967
996,1	13,367
996,5	24,367
996,9	8,167
997,4	14,567
997,8	22,367
998,2	-19,033
998,6	24,567
999	-1,033
999,5	-10,633
999,9	-18,033
1000,3	5,167
1000,7	11,767
1001,1	0,167
1001,5	4,167
1002	18,367
1002,4	-1,033
1002,8	9,567
1003,2	-2,433
1003,6	19,567
1004	-28,633
1004,5	1,567
1004,9	0,967
1005,3	8,767
1005,7	15,967
1006,1	-51,033
1006,6	-4,233
1007	23,967
1007,4	12,967
1007,8	26,167
1008,2	38,367
1008,6	18,367
1009,1	11,367
1009,5	45,567
1009,9	-4,033
1010,3	-28,633
1010,7	-10,833
1011,1	3,567
1011,6	23,167
1012	-8,633
1012,4	-18,433
1012,8	16,567
1013,2	26,367
1013,6	-8,233
1014,1	4,167
1014,5	14,567
1014,9	4,967
1015,3	15,367
1015,7	-5,433
1016,1	-7,833
1016,6	9,167
1017	-1,633
1017,4	-0,433
1017,8	5,367
1018,2	-0,433
1018,6	19,767
1019,1	13,767
1019,5	23,967
1019,9	6,167
1020,3	2,767
1020,7	-2,633
1021,1	-36,633
1021,6	-10,633
1022	-2,033
1022,4	9,567
1022,8	12,167
1023,2	-24,833
1023,6	-7,033
1024,1	11,567
1024,5	-23,633
1024,9	-1,033
1025,3	-0,833
1025,7	7,167
1026,1	11,367
1026,6	15,167
1027	-5,033
1027,4	-8,233
1027,8	20,767
1028,2	-20,433
1028,6	-9,833
1029	-5,833
1029,5	10,367
1029,9	5,967
1030,3	3,967
1030,7	22,767
1031,1	7,367
1031,5	-22,433
1032	-2,433
1032,4	7,567
1032,8	-1,033
1033,2	-19,633
1033,6	14,167
1034	-1,433
1034,4	19,167
1034,9	23,167
1035,3	11,167
1035,7	4,967
1036,1	-8,433
1036,5	-19,433
1036,9	22,567
1037,4	12,567
1037,8	19,367
1038,2	42,567
1038,6	18,767
1039	-10,433
1039,4	10,967
1039,8	-6,433
1040,3	8,767
1040,7	22,367
1041,1	0,567
1041,5	26,367
1041,9	-21,033
1042,3	0,767
1042,7	-4,033
1043,2	12,767
1043,6	12,567
1044	-9,433
1044,4	0,167
1044,8	6,367
1045,2	38,367
1045,6	-15,633
1046,1	6,567
1046,5	4,367
1046,9	30,767
1047,3	30,967
1047,7	16,367
1048,1	18,367
1048,5	-23,433
1049	12,567
1049,4	3,167
1049,8	-3,433
1050,2	-26,233
1050,6	-6,433
1051	26,967
1051,4	19,567
1051,9	-28,833
1052,3	21,567
1052,7	-18,033
1053,1	3,767
1053,5	-14,833
1053,9	26,967
1054,3	23,367
1054,8	0,367
1055,2	27,367
1055,6	0,567
1056	-11,433
1056,4	4,967
1056,8	28,767
1057,2	18,767
1057,6	19,367
1058,1	-25,033
1058,5	25,567
1058,9	-25,833
1059,3	7,767
1059,7	-8,033
1060,1	2,567
1060,5	13,367
1061	-40,833
1061,4	2,567
1061,8	26,967
1062,2	-24,633
1062,6	48,567
1063	3,967
1063,4	49,567
1063,8	-30,633
1064,3	-0,033
1064,7	-3,833
1065,1	14,367
1065,5	14,767
1065,9	-21,433
1066,3	-18,633
1066,7	-9,433
1067,1	16,567
1067,6	13,767
1068	-16,033
1068,4	-27,433
1068,8	-1,433
1069,2	-16,633
1069,6	-1,033
1070	-8,833
1070,4	-3,833
1070,9	-13,233
1071,3	-11,033
1071,7	-16,833
1072,1	9,167
1072,5	1,567
1072,9	-20,833
1073,3	-3,233
1073,7	-5,433
1074,2	8,967
1074,6	2,367
1075	15,567
1075,4	16,567
1075,8	19,567
1076,2	4,567
1076,6	-11,033
1077	-29,633
1077,5	-3,033
1077,9	-7,633
1078,3	-26,033
1078,7	17,767
1079,1	7,167
1079,5	-2,633
1079,9	6,967
1080,3	-6,633
1080,7	0,167
1081,2	16,367
1081,6	6,567
1082	-12,233
1082,4	5,167
1082,8	-3,233
1083,2	7,167
1083,6	33,767
1084	18,567
1084,5	4,567
1084,9	25,767
1085,3	11,967
1085,7	5,567
1086,1	21,967
1086,5	5,167
1086,9	29,767
1087,3	-3,633
1087,7	26,167
1088,2	-11,233
1088,6	12,767
1089	6,567
1089,4	-14,833
1089,8	-16,233
1090,2	7,367
1090,6	1,167
1091	-8,233
1091,4	6,567
1091,9	-24,433
1092,3	2,967
1092,7	11,967
1093,1	-18,233
1093,5	-19,433
1093,9	31,167
1094,3	2,167
1094,7	28,967
1095,1	13,367
1095,5	6,367
1096	2,767
1096,4	17,367
1096,8	13,367
1097,2	-10,633
1097,6	25,367
1098	7,767
1098,4	-8,433
1098,8	-7,833
1099,2	14,367
1099,6	-24,033
1100,1	-15,633
1100,5	-26,233
1100,9	20,967
1101,3	-1,033
1101,7	-5,833
1102,1	-2,433
1102,5	16,767
1102,9	-6,833
1103,3	-5,033
1103,7	-15,233
1104,2	24,367
1104,6	0,567
1105	28,567
1105,4	-13,033
1105,8	-13,433
1106,2	0,767
1106,6	29,167
1107	1,167
1107,4	-0,633
1107,8	0,167
1108,3	0,767
