Data from Subt2_00032.txt Node
Date: Wed Aug 02 19:37:26 MSK 2023
User: vat
Spectrometer: MAYP114033
Trigger mode: 0
Integration Time (sec): 7,000000E-1
Scans to average: 5
Electric dark correction enabled: true
Nonlinearity correction enabled: false
Boxcar width: 0
XAxis mode: Wavelengths
Number of Pixels in Spectrum: 2068
>>>>>Begin Spectral Data<<<<<
199,4	0,633
199,9	-1,967
200,4	0,433
200,8	0,833
201,3	1,633
201,8	-0,367
202,2	-37,367
202,7	24,233
203,2	-15,167
203,6	-16,767
204,1	28,033
204,6	23,233
205	18,833
205,5	-1,767
206	17,033
206,4	4,033
206,9	23,633
207,4	22,033
207,8	-2,567
208,3	17,233
208,8	0,233
209,2	3,233
209,7	2,633
210,2	15,233
210,6	6,233
211,1	-6,167
211,5	11,833
212	-22,167
212,5	-3,367
212,9	1,033
213,4	0,433
213,9	-12,567
214,3	21,233
214,8	3,833
215,3	3,033
215,7	7,233
216,2	-2,767
216,7	-28,167
217,1	-19,567
217,6	7,633
218,1	-3,167
218,5	19,633
219	0,633
219,5	-16,567
219,9	21,833
220,4	-8,367
220,9	-25,767
221,3	6,433
221,8	16,433
222,3	-2,767
222,7	-6,767
223,2	-13,367
223,6	13,233
224,1	0,633
224,6	15,033
225	11,233
225,5	4,233
226	1,833
226,4	4,633
226,9	-17,367
227,4	9,833
227,8	-10,367
228,3	31,833
228,8	10,433
229,2	19,833
229,7	34,233
230,2	5,433
230,6	-14,567
231,1	16,833
231,5	-10,167
232	17,433
232,5	19,233
232,9	-0,167
233,4	3,833
233,9	23,233
234,3	5,433
234,8	24,833
235,3	27,233
235,7	21,633
236,2	4,833
236,7	7,033
237,1	9,033
237,6	0,833
238,1	11,233
238,5	20,033
239	-22,767
239,4	-27,367
239,9	-25,767
240,4	-4,767
240,8	-23,167
241,3	9,633
241,8	9,033
242,2	5,833
242,7	4,633
243,2	-9,767
243,6	-11,567
244,1	-5,967
244,6	39,633
245	-16,167
245,5	-7,567
245,9	13,033
246,4	11,033
246,9	2,633
247,3	-4,967
247,8	6,033
248,3	17,033
248,7	-0,367
249,2	28,033
249,7	8,433
250,1	20,833
250,6	11,633
251	-6,567
251,5	-6,967
252	-10,967
252,4	0,033
252,9	12,633
253,4	-8,167
253,8	-10,967
254,3	6,033
254,8	5,233
255,2	-34,367
255,7	8,633
256,1	-3,367
256,6	4,833
257,1	17,833
257,5	-8,367
258	27,833
258,5	-24,767
258,9	9,633
259,4	-3,567
259,9	15,633
260,3	-3,367
260,8	-21,567
261,2	11,833
261,7	0,433
262,2	-3,367
262,6	-8,567
263,1	40,833
263,6	-7,767
264	-1,167
264,5	26,833
264,9	6,633
265,4	-1,567
265,9	1,833
266,3	-4,567
266,8	6,433
267,3	17,433
267,7	6,633
268,2	-26,367
268,7	-3,767
269,1	24,833
269,6	10,433
270	-17,567
270,5	-7,767
271	15,233
271,4	2,433
271,9	7,233
272,4	-21,167
272,8	-13,567
273,3	16,033
273,7	18,233
274,2	-3,367
274,7	-22,167
275,1	-19,767
275,6	-26,567
276,1	6,033
276,5	3,633
277	8,633
277,4	15,033
277,9	9,033
278,4	-15,967
278,8	16,833
279,3	1,433
279,8	4,833
280,2	19,633
280,7	20,033
281,1	5,033
281,6	-31,367
282,1	-17,967
282,5	22,033
283	-36,567
283,4	12,833
283,9	16,233
284,4	-1,567
284,8	-9,967
285,3	1,633
285,8	-15,567
286,2	0,633
286,7	-3,367
287,1	10,033
287,6	11,433
288,1	16,633
288,5	16,633
289	-5,367
289,5	3,233
289,9	-13,767
290,4	11,033
290,8	-10,167
291,3	9,833
291,8	-18,367
292,2	-37,367
292,7	10,833
293,1	-16,567
293,6	-14,167
294,1	-4,167
294,5	-15,167
295	4,633
295,5	17,433
295,9	5,833
296,4	24,233
296,8	-25,167
297,3	17,633
297,8	-17,767
298,2	27,433
298,7	-16,767
299,1	11,633
299,6	-18,967
300,1	34,433
300,5	17,233
301	28,433
301,5	1,833
301,9	2,433
302,4	-43,567
302,8	-26,167
303,3	-21,567
303,8	16,633
304,2	-3,167
304,7	-17,367
305,1	-1,167
305,6	26,433
306,1	1,233
306,5	25,833
307	-20,167
307,4	-17,967
307,9	4,633
308,4	6,233
308,8	-31,167
309,3	6,233
309,8	19,433
310,2	-5,767
310,7	6,433
311,1	30,033
311,6	17,033
312,1	5,833
312,5	-5,967
313	-10,567
313,4	-38,167
313,9	-0,167
314,4	5,833
314,8	9,833
315,3	1,033
315,7	0,033
316,2	22,033
316,7	-15,367
317,1	10,033
317,6	14,233
318	2,233
318,5	-7,367
319	21,433
319,4	-15,967
319,9	3,833
320,3	-11,967
320,8	-4,167
321,3	-19,967
321,7	6,433
322,2	-17,567
322,6	-9,567
323,1	7,633
323,6	-13,167
324	-27,367
324,5	14,433
324,9	3,233
325,4	-18,567
325,9	-4,367
326,3	-5,767
326,8	27,033
327,2	14,633
327,7	26,833
328,2	10,033
328,6	35,633
329,1	16,633
329,5	22,433
330	1,633
330,5	15,833
330,9	1,433
331,4	1,433
331,8	-10,767
332,3	-10,967
332,8	3,433
333,2	-1,567
333,7	-6,167
334,1	10,233
334,6	-3,167
335,1	8,433
335,5	11,633
336	17,833
336,4	27,033
336,9	8,833
337,4	-4,567
337,8	23,233
338,3	7,433
338,7	27,433
339,2	-15,967
339,7	-0,167
340,1	-15,967
340,6	36,633
341	7,833
341,5	23,033
342	8,233
342,4	-3,567
342,9	48,033
343,3	29,233
343,8	14,033
344,2	33,833
344,7	49,633
345,2	39,833
345,6	29,233
346,1	-13,367
346,5	42,433
347	7,433
347,5	28,233
347,9	14,033
348,4	-2,767
348,8	4,233
349,3	49,833
349,8	26,233
350,2	31,033
350,7	77,633
351,1	65,633
351,6	55,433
352	86,033
352,5	103,033
353	143,433
353,4	143,833
353,9	192,633
354,3	199,033
354,8	285,433
355,3	326,233
355,7	422,033
356,2	471,033
356,6	572,433
357,1	699,433
357,5	835,233
358	941,433
358,5	1140,433
358,9	1306,233
359,4	1529,633
359,8	1759,033
360,3	2011,033
360,8	2326,833
361,2	2671,833
361,7	3031,233
362,1	3452,033
362,6	3857,633
363	4368,833
363,5	4896,633
364	5446,233
364,4	5910,033
364,9	6529,233
365,3	7108,833
365,8	7633,233
366,3	8083,633
366,7	8601,433
367,2	8896,033
367,6	9217,633
368,1	9457,433
368,5	9644,633
369	9721,233
369,5	9734,033
369,9	9571,833
370,4	9441,833
370,8	9183,233
371,3	8806,033
371,7	8536,633
372,2	8157,433
372,7	7710,833
373,1	7258,633
373,6	6826,833
374	6367,633
374,5	5921,033
374,9	5480,633
375,4	5054,233
375,9	4644,233
376,3	4343,233
376,8	3985,033
377,2	3625,033
377,7	3327,433
378,2	3030,833
378,6	2755,633
379,1	2507,233
379,5	2300,033
380	2078,833
380,4	1906,633
380,9	1784,433
381,4	1597,233
381,8	1496,833
382,3	1357,033
382,7	1227,833
383,2	1163,633
383,6	1086,033
384,1	958,433
384,6	933,033
385	854,233
385,5	797,633
385,9	755,233
386,4	670,833
386,8	617,033
387,3	569,033
387,7	537,033
388,2	505,233
388,7	458,433
389,1	439,033
389,6	384,433
390	367,233
390,5	334,233
390,9	282,633
391,4	313,633
391,9	265,233
392,3	255,833
392,8	201,033
393,2	201,633
393,7	182,233
394,1	173,033
394,6	163,833
395,1	148,833
395,5	167,633
396	156,833
396,4	109,033
396,9	114,433
397,3	118,433
397,8	137,833
398,2	133,233
398,7	120,633
399,2	83,433
399,6	74,633
400,1	97,433
400,5	117,433
401	52,633
401,4	77,633
401,9	63,233
402,4	47,033
402,8	38,833
403,3	64,033
403,7	55,033
404,2	65,433
404,6	44,233
405,1	47,833
405,5	38,633
406	54,833
406,5	56,233
406,9	51,433
407,4	49,033
407,8	52,633
408,3	27,633
408,7	45,633
409,2	45,233
409,6	12,433
410,1	33,633
410,6	49,033
411	63,233
411,5	41,833
411,9	22,833
412,4	50,633
412,8	57,633
413,3	37,033
413,7	58,433
414,2	44,633
414,7	26,233
415,1	52,433
415,6	0,633
416	34,633
416,5	43,033
416,9	56,633
417,4	30,033
417,8	52,633
418,3	29,833
418,8	17,033
419,2	23,633
419,7	46,833
420,1	43,833
420,6	47,233
421	41,833
421,5	50,833
421,9	23,633
422,4	39,033
422,8	35,033
423,3	36,633
423,8	35,233
424,2	32,433
424,7	17,433
425,1	67,433
425,6	36,833
426	38,433
426,5	45,033
426,9	47,033
427,4	23,633
427,9	38,833
428,3	32,633
428,8	18,633
429,2	31,833
429,7	29,433
430,1	39,633
430,6	69,233
431	30,033
431,5	3,233
431,9	60,233
432,4	15,033
432,8	37,633
433,3	48,233
433,8	33,233
434,2	36,233
434,7	25,033
435,1	21,633
435,6	47,433
436	40,233
436,5	36,433
436,9	9,033
437,4	51,233
437,8	17,033
438,3	36,033
438,8	4,233
439,2	45,233
439,7	2,233
440,1	15,033
440,6	20,833
441	-14,167
441,5	56,233
441,9	3,833
442,4	42,633
442,8	12,033
443,3	28,833
443,7	24,033
444,2	18,233
444,7	19,233
445,1	24,033
445,6	37,433
446	43,033
446,5	58,033
446,9	18,233
447,4	27,833
447,8	44,833
448,3	55,233
448,7	43,233
449,2	28,833
449,6	20,433
450,1	9,033
450,6	46,633
451	39,233
451,5	22,833
451,9	8,433
452,4	48,633
452,8	33,233
453,3	8,633
453,7	14,633
454,2	43,433
454,6	47,033
455,1	22,033
455,5	38,033
456	12,433
456,4	30,033
456,9	3,233
457,3	33,433
457,8	19,833
458,3	22,433
458,7	25,233
459,2	20,833
459,6	19,833
460,1	47,633
460,5	18,233
461	-8,367
461,4	-3,167
461,9	32,833
462,3	26,033
462,8	24,033
463,2	-4,767
463,7	20,433
464,1	8,033
464,6	20,033
465	-1,567
465,5	7,633
466	31,833
466,4	27,633
466,9	20,033
467,3	24,833
467,8	10,033
468,2	34,433
468,7	62,033
469,1	-5,967
469,6	25,033
470	38,033
470,5	16,833
470,9	49,033
471,4	9,233
471,8	15,833
472,3	13,433
472,7	-10,567
473,2	2,233
473,6	57,033
474,1	-8,567
474,5	8,233
475	16,833
475,4	19,633
475,9	20,033
476,4	12,433
476,8	13,633
477,3	4,233
477,7	29,433
478,2	41,833
478,6	7,633
479,1	11,833
479,5	45,033
480	10,033
480,4	29,433
480,9	19,433
481,3	1,433
481,8	4,033
482,2	42,833
482,7	42,433
483,1	7,233
483,6	-11,367
484	32,233
484,5	-7,767
484,9	44,633
485,4	38,833
485,8	-4,367
486,3	0,833
486,7	-1,767
487,2	-4,567
487,6	-0,167
488,1	3,833
488,5	6,833
489	46,233
489,4	22,833
489,9	18,233
490,4	15,833
490,8	-6,967
491,3	-0,167
491,7	-7,567
492,2	29,633
492,6	20,033
493,1	7,433
493,5	14,833
494	7,433
494,4	-11,567
494,9	36,633
495,3	30,033
495,8	17,433
496,2	3,833
496,7	25,633
497,1	18,233
497,6	15,033
498	7,433
498,5	33,033
498,9	-8,567
499,4	4,233
499,8	-13,167
500,3	-3,167
500,7	-8,367
501,2	18,633
501,6	7,033
502,1	18,033
502,5	3,233
503	16,833
503,4	10,233
503,9	16,433
504,3	22,833
504,8	0,233
505,2	23,233
505,7	5,833
506,1	59,033
506,6	12,433
507	22,033
507,5	17,633
507,9	15,033
508,4	6,233
508,8	15,633
509,3	-12,967
509,7	36,633
510,2	15,633
510,6	8,433
511,1	6,233
511,5	33,233
512	13,633
512,4	6,433
512,9	17,233
513,3	9,833
513,8	19,233
514,2	-19,367
514,7	11,233
515,1	5,833
515,6	22,833
516	9,433
516,5	7,633
516,9	-2,367
517,4	-3,167
517,8	-0,167
518,3	0,633
518,7	3,633
519,2	20,433
519,6	-12,967
520,1	29,633
520,5	19,033
521	17,033
521,4	-14,767
521,9	21,833
522,3	30,433
522,8	-37,767
523,2	-1,167
523,7	4,433
524,1	15,033
524,6	-3,167
525	9,633
525,5	6,033
525,9	7,633
526,4	40,433
526,8	1,833
527,3	17,233
527,7	36,033
528,2	25,233
528,6	-2,367
529,1	-24,367
529,5	12,233
530	13,033
530,4	7,233
530,9	12,233
531,3	0,833
531,8	23,033
532,2	25,633
532,6	6,833
533,1	-2,367
533,5	-4,767
534	10,233
534,4	6,633
534,9	0,233
535,3	21,633
535,8	7,033
536,2	14,633
536,7	-7,967
537,1	-5,167
537,6	-0,567
538	-24,167
538,5	15,433
538,9	-5,167
539,4	4,233
539,8	46,033
540,3	-4,567
540,7	-2,167
541,2	7,233
541,6	-7,967
542,1	22,633
542,5	11,433
543	-29,567
543,4	1,433
543,9	8,633
544,3	11,033
544,8	22,833
545,2	16,833
545,7	35,233
546,1	5,033
546,5	9,033
547	-5,567
547,4	-16,967
547,9	19,033
548,3	5,833
548,8	-11,567
549,2	31,033
549,7	-9,767
550,1	11,433
550,6	4,633
551	26,033
551,5	-1,567
551,9	-1,167
552,4	-28,567
552,8	-21,767
553,3	-11,967
553,7	4,433
554,2	29,033
554,6	-10,367
555,1	15,433
555,5	-10,367
555,9	-14,767
556,4	-23,967
556,8	10,833
557,3	5,233
557,7	-7,567
558,2	-5,167
558,6	38,833
559,1	-2,167
559,5	10,233
560	-9,767
560,4	7,633
560,9	15,033
561,3	13,233
561,8	19,433
562,2	25,433
562,7	32,033
563,1	15,433
563,6	-4,367
564	-8,167
564,4	5,233
564,9	30,233
565,3	18,233
565,8	18,633
566,2	31,433
566,7	25,633
567,1	3,633
567,6	2,833
568	5,433
568,5	19,433
568,9	60,233
569,4	-1,367
569,8	-2,767
570,3	-14,167
570,7	18,033
571,1	4,233
571,6	3,433
572	19,633
572,5	-0,767
572,9	18,433
573,4	17,833
573,8	1,833
574,3	4,833
574,7	3,033
575,2	20,833
575,6	-4,567
576,1	14,633
576,5	16,233
576,9	4,633
577,4	-13,167
577,8	14,233
578,3	4,433
578,7	-16,367
579,2	33,433
579,6	-9,767
580,1	-6,967
580,5	39,033
581	-10,167
581,4	6,033
581,9	0,433
582,3	-1,567
582,7	10,433
583,2	-22,967
583,6	-0,167
584,1	17,833
584,5	22,233
585	-4,367
585,4	11,633
585,9	37,233
586,3	29,033
586,8	-15,167
587,2	-32,967
587,6	16,233
588,1	-5,367
588,5	16,833
589	10,033
589,4	6,233
589,9	5,433
590,3	2,833
590,8	8,433
591,2	-9,567
591,7	11,633
592,1	12,033
592,5	-4,967
593	8,233
593,4	27,033
593,9	11,633
594,3	9,233
594,8	0,833
595,2	32,633
595,7	27,833
596,1	17,433
596,6	16,033
597	-11,167
597,4	-7,967
597,9	6,633
598,3	-0,567
598,8	28,833
599,2	5,833
599,7	-2,367
600,1	22,433
600,6	-2,967
601	-2,367
601,4	38,233
601,9	14,233
602,3	48,833
602,8	5,233
603,2	18,633
603,7	7,233
604,1	-4,367
604,6	10,033
605	-4,367
605,4	-3,367
605,9	35,433
606,3	28,033
606,8	-3,967
607,2	13,233
607,7	-1,767
608,1	21,633
608,6	10,433
609	28,833
609,4	-3,767
609,9	-13,967
610,3	19,233
610,8	4,433
611,2	6,233
611,7	-21,967
612,1	40,433
612,6	-14,567
613	-7,367
613,4	28,433
613,9	-8,767
614,3	13,233
614,8	6,633
615,2	7,633
615,7	-20,367
616,1	15,633
616,6	10,633
617	32,033
617,4	-15,367
617,9	3,433
618,3	27,233
618,8	0,033
619,2	7,633
619,7	-14,967
620,1	-14,967
620,5	6,633
621	18,633
621,4	19,033
621,9	19,433
622,3	-19,567
622,8	-20,567
623,2	13,633
623,6	20,433
624,1	-31,167
624,5	-8,167
625	3,033
625,4	3,233
625,9	15,433
626,3	35,033
626,8	1,833
627,2	4,033
627,6	14,633
628,1	38,233
628,5	-4,967
629	3,833
629,4	-3,367
629,9	5,033
630,3	5,833
630,7	9,633
631,2	21,633
631,6	-7,567
632,1	-21,567
632,5	-5,967
633	3,833
633,4	19,033
633,8	5,233
634,3	43,233
634,7	-0,367
635,2	-19,167
635,6	5,233
636,1	1,833
636,5	10,233
636,9	1,633
637,4	9,233
637,8	5,433
638,3	-6,567
638,7	12,633
639,2	11,633
639,6	3,633
640	9,433
640,5	4,833
640,9	1,633
641,4	-22,567
641,8	-0,767
642,2	-23,367
642,7	8,633
643,1	12,633
643,6	-6,767
644	-11,567
644,5	16,833
644,9	12,833
645,3	17,033
645,8	9,233
646,2	-28,567
646,7	-20,967
647,1	-2,767
647,6	-38,367
648	10,433
648,4	-7,967
648,9	-18,567
649,3	-16,367
649,8	-28,167
650,2	-10,967
650,6	22,033
651,1	6,633
651,5	37,633
652	-2,967
652,4	2,433
652,9	-1,167
653,3	-3,167
653,7	-8,967
654,2	44,633
654,6	28,633
655,1	31,633
655,5	11,033
655,9	34,233
656,4	14,433
656,8	23,233
657,3	-28,967
657,7	11,233
658,2	-2,567
658,6	16,633
659	-18,167
659,5	38,633
659,9	-1,567
660,4	26,433
660,8	-5,967
661,2	6,033
661,7	33,033
662,1	15,033
662,6	11,633
663	-19,167
663,4	-9,167
663,9	46,033
664,3	37,633
664,8	21,233
665,2	10,033
665,6	-11,767
666,1	-2,567
666,5	7,233
667	-32,767
667,4	11,633
667,9	9,633
668,3	-20,767
668,7	14,633
669,2	13,233
669,6	2,433
670,1	10,233
670,5	-29,167
670,9	-20,567
671,4	8,433
671,8	0,233
672,3	17,633
672,7	11,633
673,1	-1,967
673,6	-14,567
674	7,833
674,5	-19,367
674,9	-12,167
675,3	10,833
675,8	16,033
676,2	25,833
676,7	23,633
677,1	-1,967
677,5	-0,167
678	18,633
678,4	12,033
678,9	5,233
679,3	-5,367
679,7	-18,567
680,2	-9,567
680,6	23,033
681,1	7,233
681,5	-1,567
681,9	31,833
682,4	8,633
682,8	5,433
683,3	0,433
683,7	2,633
684,1	1,633
684,6	13,833
685	18,233
685,5	17,033
685,9	1,033
686,3	22,633
686,8	-1,367
687,2	5,033
687,7	-12,367
688,1	6,633
688,5	3,833
689	-4,167
689,4	19,033
689,9	-26,167
690,3	-4,767
690,7	13,233
691,2	-40,967
691,6	-7,567
692	41,633
692,5	-9,167
692,9	3,833
693,4	-2,567
693,8	-14,967
694,2	10,433
694,7	-18,767
695,1	0,833
695,6	-1,367
696	-9,767
696,4	-4,567
696,9	20,433
697,3	5,433
697,8	-18,967
698,2	15,033
698,6	-0,167
699,1	1,633
699,5	-14,567
699,9	-0,967
700,4	-9,767
700,8	-35,767
701,3	6,033
701,7	-27,767
702,1	3,433
702,6	17,233
703	9,633
703,5	-37,567
703,9	-16,567
704,3	8,633
704,8	11,633
705,2	-15,167
705,6	-4,567
706,1	-1,967
706,5	39,633
707	1,633
707,4	-4,967
707,8	0,433
708,3	-4,767
708,7	7,233
709,2	5,433
709,6	29,433
710	19,233
710,5	10,433
710,9	-2,367
711,3	-10,367
711,8	6,233
712,2	8,033
712,7	18,833
713,1	14,433
713,5	-36,767
714	9,233
714,4	25,433
714,8	-12,167
715,3	-25,167
715,7	-5,567
716,2	-3,967
716,6	-3,567
717	5,633
717,5	5,033
717,9	-8,567
718,3	14,233
718,8	-4,367
719,2	36,033
719,7	-15,767
720,1	29,433
720,5	-10,567
721	4,633
721,4	11,033
721,8	2,433
722,3	-3,767
722,7	-3,767
723,2	2,633
723,6	-35,567
724	29,633
724,5	19,633
724,9	-7,967
725,3	-4,567
725,8	5,233
726,2	5,833
726,7	-5,167
727,1	16,633
727,5	15,433
728	-1,367
728,4	2,433
728,8	-13,967
729,3	0,633
729,7	-14,367
730,1	-6,167
730,6	-14,767
731	-11,567
731,5	9,233
731,9	7,433
732,3	-0,767
732,8	-16,767
733,2	-0,367
733,6	17,833
734,1	6,033
734,5	0,033
734,9	-8,967
735,4	-12,567
735,8	30,033
736,3	-33,967
736,7	29,233
737,1	27,833
737,6	10,833
738	-5,367
738,4	-27,367
738,9	-4,567
739,3	9,633
739,7	11,433
740,2	-4,167
740,6	-5,167
741,1	-3,567
741,5	7,633
741,9	13,633
742,4	-19,567
742,8	-16,167
743,2	10,633
743,7	-8,567
744,1	17,233
744,5	-43,367
745	17,633
745,4	21,233
745,8	14,633
746,3	23,233
746,7	-15,567
747,2	-21,367
747,6	19,033
748	-3,367
748,5	-31,367
748,9	-16,767
749,3	41,233
749,8	18,433
750,2	-10,567
750,6	3,433
751,1	-3,367
751,5	9,433
751,9	4,633
752,4	-21,967
752,8	-34,967
753,3	-12,167
753,7	-3,767
754,1	2,033
754,6	30,633
755	-7,767
755,4	9,833
755,9	25,233
756,3	-12,767
756,7	-8,567
757,2	-14,767
757,6	2,433
758	-11,367
758,5	-28,367
758,9	0,833
759,3	-23,767
759,8	-12,967
760,2	-10,167
760,6	-18,567
761,1	-25,567
761,5	20,033
761,9	6,233
762,4	13,633
762,8	8,233
763,3	-15,767
763,7	13,233
764,1	0,833
764,6	2,633
765	-26,367
765,4	-4,367
765,9	-15,967
766,3	-13,367
766,7	0,033
767,2	7,233
767,6	-14,167
768	7,633
768,5	-0,967
768,9	-12,967
769,3	4,433
769,8	17,433
770,2	-26,367
770,6	-0,767
771,1	14,833
771,5	-25,167
771,9	-26,567
772,4	17,033
772,8	4,433
773,2	-6,367
773,7	20,833
774,1	-30,567
774,5	7,833
775	6,833
775,4	11,033
775,8	-3,167
776,3	-14,167
776,7	-0,567
777,1	-4,567
777,6	13,633
778	-24,167
778,4	-1,567
778,9	-9,567
779,3	-1,967
779,7	4,633
780,2	5,033
780,6	8,633
781	-14,567
781,5	-12,367
781,9	-5,767
782,3	45,233
782,8	27,633
783,2	-12,367
783,6	1,433
784,1	-5,367
784,5	-17,367
784,9	-17,567
785,4	20,233
785,8	-22,767
786,2	18,233
786,7	-14,567
787,1	33,633
787,5	-18,367
788	2,833
788,4	12,233
788,8	0,833
789,3	3,633
789,7	8,233
790,1	39,233
790,6	-9,167
791	24,233
791,4	22,633
791,9	23,233
792,3	29,833
792,7	8,833
793,2	4,033
793,6	-14,167
794	11,633
794,5	-30,967
794,9	2,633
795,3	-4,367
795,8	-24,967
796,2	31,233
796,6	-15,167
797,1	-4,167
797,5	-22,567
797,9	9,633
798,4	1,633
798,8	-18,967
799,2	11,833
799,7	21,233
800,1	-7,367
800,5	-3,767
801	-10,967
801,4	-2,967
801,8	15,433
802,2	5,433
802,7	-43,367
803,1	-3,567
803,5	18,633
804	1,033
804,4	0,033
804,8	6,233
805,3	36,233
805,7	0,233
806,1	12,433
806,6	-8,967
807	-23,167
807,4	-10,167
807,9	-0,967
808,3	-9,167
808,7	17,233
809,2	4,033
809,6	-8,567
810	0,433
810,4	-6,967
810,9	16,433
811,3	-21,567
811,7	25,633
812,2	-8,767
812,6	7,833
813	15,433
813,5	-21,967
813,9	3,433
814,3	-4,167
814,8	13,433
815,2	16,033
815,6	-7,967
816,1	-10,367
816,5	-8,567
816,9	-5,967
817,3	-14,367
817,8	14,233
818,2	-8,567
818,6	3,033
819,1	35,033
819,5	21,233
819,9	31,433
820,4	-6,967
820,8	1,833
821,2	15,833
821,7	9,033
822,1	1,633
822,5	13,833
822,9	7,033
823,4	-15,367
823,8	22,033
824,2	-33,567
824,7	-18,767
825,1	-20,167
825,5	2,233
826	-1,767
826,4	2,433
826,8	14,433
827,3	7,233
827,7	8,033
828,1	9,633
828,5	-1,567
829	-1,367
829,4	-0,167
829,8	-22,767
830,3	6,633
830,7	-0,167
831,1	-11,567
831,6	-8,367
832	-3,767
832,4	-12,567
832,8	-3,767
833,3	13,833
833,7	5,233
834,1	6,433
834,6	-19,767
835	-0,767
835,4	-2,367
835,8	-6,567
836,3	1,033
836,7	48,433
837,1	14,633
837,6	-21,367
838	1,833
838,4	16,433
838,9	-25,567
839,3	22,233
839,7	18,233
840,1	-18,367
840,6	-2,967
841	22,033
841,4	-1,167
841,9	-14,367
842,3	26,033
842,7	-18,767
843,1	-24,167
843,6	24,833
844	1,633
844,4	3,233
844,9	14,633
845,3	-17,767
845,7	-13,167
846,2	12,233
846,6	9,033
847	5,033
847,4	-23,367
847,9	29,433
848,3	2,433
848,7	31,433
849,2	21,833
849,6	19,033
850	4,033
850,4	-30,567
850,9	-14,167
851,3	9,033
851,7	-14,167
852,2	7,833
852,6	3,233
853	-4,567
853,4	-11,767
853,9	-14,367
854,3	11,433
854,7	-22,167
855,2	4,233
855,6	0,433
856	-15,767
856,4	-15,767
856,9	-9,567
857,3	-8,567
857,7	31,433
858,2	9,233
858,6	-6,767
859	8,033
859,4	-4,767
859,9	16,433
860,3	-12,367
860,7	5,033
861,1	23,233
861,6	11,833
862	15,633
862,4	-1,367
862,9	-16,567
863,3	8,833
863,7	-25,567
864,1	-3,767
864,6	-29,767
865	2,833
865,4	4,233
865,9	-19,767
866,3	5,633
866,7	-9,567
867,1	11,033
867,6	-2,567
868	13,633
868,4	8,233
868,8	-18,367
869,3	16,233
869,7	-10,967
870,1	11,033
870,6	34,033
871	3,433
871,4	19,433
871,8	13,033
872,3	-29,567
872,7	-30,367
873,1	1,433
873,5	-11,767
874	13,033
874,4	-14,167
874,8	-3,367
875,3	13,433
875,7	-7,367
876,1	10,233
876,5	25,833
877	-23,967
877,4	-6,367
877,8	24,633
878,2	2,033
878,7	-9,767
879,1	-22,567
879,5	-28,967
879,9	-19,167
880,4	-1,767
880,8	-7,567
881,2	-14,367
881,7	-4,567
882,1	-16,967
882,5	-6,567
882,9	0,833
883,4	-2,767
883,8	18,633
884,2	14,833
884,6	-14,367
885,1	-2,567
885,5	-6,767
885,9	-0,567
886,3	-9,367
886,8	-13,167
887,2	11,033
887,6	32,233
888	33,233
888,5	13,433
888,9	-14,567
889,3	7,233
889,8	-0,567
890,2	16,633
890,6	-9,167
891	18,233
891,5	8,033
891,9	-3,967
892,3	3,033
892,7	18,833
893,2	22,833
893,6	22,633
894	-8,567
894,4	19,233
894,9	15,233
895,3	16,033
895,7	-4,367
896,1	-3,567
896,6	-1,167
897	1,233
897,4	-12,167
897,8	-24,967
898,3	3,233
898,7	-1,167
899,1	-3,167
899,5	5,033
900	-4,167
900,4	18,433
900,8	-5,967
901,2	16,833
901,7	-15,767
902,1	-7,167
902,5	-29,967
902,9	21,633
903,4	-3,367
903,8	-26,967
904,2	-36,367
904,6	-0,167
905,1	3,033
905,5	7,233
905,9	5,233
906,3	-17,967
906,8	-3,567
907,2	17,033
907,6	-28,567
908	6,233
908,5	4,633
908,9	18,033
909,3	16,233
909,7	-17,567
910,2	-4,567
910,6	0,033
911	23,633
911,4	3,233
911,9	1,833
912,3	-27,967
912,7	-8,567
913,1	11,033
913,6	-2,967
914	-4,367
914,4	-13,967
914,8	4,033
915,3	-4,767
915,7	-14,167
916,1	3,233
916,5	1,233
916,9	23,633
917,4	5,233
917,8	-13,167
918,2	29,233
918,6	18,833
919,1	-18,767
919,5	-17,367
919,9	10,833
920,3	16,833
920,8	-9,167
921,2	-4,167
921,6	5,633
922	22,833
922,5	14,033
922,9	6,433
923,3	-30,367
923,7	-1,967
924,2	14,033
924,6	9,233
925	-36,967
925,4	0,033
925,8	15,833
926,3	15,033
926,7	-9,167
927,1	3,433
927,5	3,433
928	-21,167
928,4	30,233
928,8	7,233
929,2	11,433
929,7	22,433
930,1	-18,967
930,5	-13,367
930,9	2,633
931,3	-18,567
931,8	-8,967
932,2	17,033
932,6	-10,167
933	7,833
933,5	-1,167
933,9	4,433
934,3	-18,367
934,7	6,833
935,2	13,233
935,6	-14,767
936	0,233
936,4	23,433
936,8	-0,367
937,3	22,233
937,7	-7,567
938,1	4,233
938,5	-24,767
939	-0,167
939,4	-9,567
939,8	17,833
940,2	2,233
940,6	15,433
941,1	2,833
941,5	-3,967
941,9	-15,967
942,3	-13,567
942,8	9,033
943,2	20,233
943,6	6,233
944	-11,767
944,4	-0,967
944,9	32,233
945,3	5,633
945,7	-17,167
946,1	6,833
946,6	-12,967
947	19,233
947,4	-6,567
947,8	18,833
948,2	-33,567
948,7	-2,367
949,1	26,233
949,5	-19,767
949,9	17,833
950,3	-15,167
950,8	-5,367
951,2	-2,367
951,6	-6,167
952	30,433
952,5	42,233
952,9	-14,967
953,3	0,433
953,7	23,033
954,1	-15,967
954,6	-7,367
955	15,033
955,4	15,633
955,8	-4,367
956,2	19,433
956,7	4,033
957,1	3,433
957,5	19,033
957,9	17,433
958,3	-27,767
958,8	2,033
959,2	-9,367
959,6	-6,967
960	-14,567
960,5	1,833
960,9	29,433
961,3	-11,967
961,7	-11,167
962,1	6,233
962,6	-22,567
963	14,433
963,4	17,833
963,8	15,033
964,2	-10,167
964,7	-11,967
965,1	22,633
965,5	4,833
965,9	0,433
966,3	-5,567
966,8	6,033
967,2	-11,567
967,6	7,033
968	0,833
968,4	-8,367
968,9	19,833
969,3	19,833
969,7	5,033
970,1	27,833
970,5	-17,167
971	3,833
971,4	-0,567
971,8	7,633
972,2	-1,767
972,6	10,233
973,1	12,033
973,5	10,033
973,9	10,033
974,3	5,033
974,7	-6,567
975,2	-17,767
975,6	15,633
976	-17,367
976,4	-36,367
976,8	-13,967
977,3	-8,367
977,7	3,233
978,1	8,033
978,5	27,033
978,9	7,433
979,4	12,833
979,8	-3,367
980,2	5,233
980,6	10,433
981	-15,567
981,5	-3,167
981,9	-6,367
982,3	-5,967
982,7	25,633
983,1	3,833
983,6	-14,567
984	14,833
984,4	13,833
984,8	33,433
985,2	-4,567
985,6	-0,167
986,1	5,233
986,5	-21,767
986,9	-4,567
987,3	-37,167
987,7	-5,767
988,2	-22,167
988,6	6,633
989	9,433
989,4	-1,367
989,8	2,833
990,3	3,033
990,7	-34,767
991,1	-4,767
991,5	-16,967
991,9	9,833
992,3	-11,767
992,8	13,433
993,2	-5,367
993,6	5,833
994	-25,567
994,4	-12,967
994,9	7,633
995,3	2,433
995,7	-9,367
996,1	6,233
996,5	-0,967
996,9	2,833
997,4	4,233
997,8	-2,967
998,2	-19,567
998,6	10,233
999	0,833
999,5	-10,567
999,9	-2,967
1000,3	0,433
1000,7	-2,567
1001,1	-2,767
1001,5	3,633
1002	2,433
1002,4	-10,967
1002,8	6,833
1003,2	-7,167
1003,6	25,833
1004	-25,167
1004,5	-8,767
1004,9	-17,367
1005,3	-9,167
1005,7	5,033
1006,1	2,233
1006,6	-13,967
1007	23,833
1007,4	10,833
1007,8	8,433
1008,2	42,033
1008,6	16,233
1009,1	-7,967
1009,5	10,033
1009,9	-20,367
1010,3	-27,967
1010,7	21,033
1011,1	9,833
1011,6	18,833
1012	-4,567
1012,4	-5,967
1012,8	17,433
1013,2	9,433
1013,6	14,033
1014,1	1,633
1014,5	4,433
1014,9	-14,167
1015,3	8,433
1015,7	-7,967
1016,1	11,033
1016,6	17,233
1017	-0,767
1017,4	-3,167
1017,8	21,233
1018,2	-7,167
1018,6	-35,367
1019,1	9,233
1019,5	-15,967
1019,9	8,033
1020,3	24,033
1020,7	13,633
1021,1	-26,167
1021,6	12,633
1022	3,633
1022,4	-0,567
1022,8	3,833
1023,2	19,433
1023,6	-0,767
1024,1	16,433
1024,5	-42,767
1024,9	10,233
1025,3	-35,967
1025,7	4,633
1026,1	-10,167
1026,6	-9,167
1027	-31,567
1027,4	-1,767
1027,8	54,233
1028,2	-19,167
1028,6	-3,167
1029	-11,967
1029,5	5,833
1029,9	10,833
1030,3	-7,567
1030,7	1,833
1031,1	-23,367
1031,5	-31,767
1032	9,833
1032,4	-24,567
1032,8	5,033
1033,2	0,833
1033,6	-0,367
1034	-4,567
1034,4	-2,767
1034,9	39,433
1035,3	-29,967
1035,7	3,633
1036,1	-13,767
1036,5	-7,967
1036,9	-20,567
1037,4	4,433
1037,8	21,833
1038,2	20,233
1038,6	20,233
1039	-28,967
1039,4	24,833
1039,8	-2,167
1040,3	-12,967
1040,7	21,233
1041,1	-4,767
1041,5	9,033
1041,9	-5,967
1042,3	24,633
1042,7	4,633
1043,2	-16,167
1043,6	-15,767
1044	9,233
1044,4	-26,967
1044,8	26,233
1045,2	9,833
1045,6	-20,967
1046,1	-6,967
1046,5	-1,767
1046,9	40,433
1047,3	2,633
1047,7	17,633
1048,1	27,233
1048,5	-12,767
1049	-1,967
1049,4	0,633
1049,8	28,633
1050,2	0,033
1050,6	-1,167
1051	26,833
1051,4	7,233
1051,9	16,033
1052,3	5,633
1052,7	13,433
1053,1	8,633
1053,5	-18,767
1053,9	36,833
1054,3	7,233
1054,8	-1,967
1055,2	17,833
1055,6	-6,767
1056	21,233
1056,4	18,233
1056,8	11,833
1057,2	13,833
1057,6	20,833
1058,1	-18,967
1058,5	10,633
1058,9	-8,367
1059,3	16,833
1059,7	22,433
1060,1	14,433
1060,5	9,233
1061	-44,567
1061,4	-8,367
1061,8	5,833
1062,2	-1,567
1062,6	28,833
1063	1,633
1063,4	29,633
1063,8	-34,367
1064,3	2,233
1064,7	11,033
1065,1	-10,567
1065,5	18,233
1065,9	-15,967
1066,3	-2,567
1066,7	0,433
1067,1	-16,967
1067,6	4,633
1068	-7,567
1068,4	2,233
1068,8	-22,367
1069,2	-26,367
1069,6	-9,567
1070	-11,567
1070,4	-15,367
1070,9	-4,567
1071,3	-3,167
1071,7	4,633
1072,1	34,433
1072,5	-7,767
1072,9	-8,567
1073,3	-15,367
1073,7	15,233
1074,2	-9,967
1074,6	14,833
1075	0,433
1075,4	30,833
1075,8	-12,167
1076,2	-19,967
1076,6	1,433
1077	-11,167
1077,5	11,633
1077,9	-9,767
1078,3	-25,367
1078,7	-14,167
1079,1	9,033
1079,5	3,433
1079,9	0,633
1080,3	-12,767
1080,7	-3,767
1081,2	13,433
1081,6	1,633
1082	-10,967
1082,4	17,233
1082,8	21,433
1083,2	-17,567
1083,6	21,433
1084	20,233
1084,5	14,633
1084,9	0,233
1085,3	-6,767
1085,7	-11,567
1086,1	-12,967
1086,5	6,633
1086,9	10,833
1087,3	-20,167
1087,7	19,833
1088,2	4,033
1088,6	22,833
1089	-12,167
1089,4	-4,367
1089,8	-32,367
1090,2	-0,767
1090,6	-0,767
1091	-3,567
1091,4	-7,167
1091,9	-29,767
1092,3	6,433
1092,7	15,033
1093,1	-20,367
1093,5	4,833
1093,9	-16,367
1094,3	-2,367
1094,7	47,433
1095,1	8,833
1095,5	15,433
1096	-7,367
1096,4	36,433
1096,8	-4,967
1097,2	-36,167
1097,6	20,633
1098	1,033
1098,4	24,433
1098,8	-10,767
1099,2	2,033
1099,6	-22,767
1100,1	-2,567
1100,5	-18,567
1100,9	7,033
1101,3	4,233
1101,7	-8,967
1102,1	-6,567
1102,5	5,833
1102,9	6,033
1103,3	-18,567
1103,7	-5,367
1104,2	-3,367
1104,6	-18,967
1105	29,433
1105,4	-2,967
1105,8	-8,567
1106,2	25,833
1106,6	0,233
1107	-2,967
1107,4	0,033
1107,8	0,633
1108,3	1,033
