Data from Subt2_00024.txt Node
Date: Wed Aug 02 19:23:50 MSK 2023
User: vat
Spectrometer: MAYP114033
Trigger mode: 0
Integration Time (sec): 7,000000E-1
Scans to average: 5
Electric dark correction enabled: true
Nonlinearity correction enabled: false
Boxcar width: 0
XAxis mode: Wavelengths
Number of Pixels in Spectrum: 2068
>>>>>Begin Spectral Data<<<<<
199,4	1,633
199,9	-1,367
200,4	-0,367
200,8	0,633
201,3	-21,767
201,8	0,633
202,2	11,233
202,7	3,033
203,2	12,233
203,6	-8,567
204,1	6,033
204,6	3,033
205	-5,167
205,5	14,433
206	-0,767
206,4	0,633
206,9	-14,767
207,4	3,433
207,8	4,033
208,3	0,633
208,8	-12,567
209,2	20,633
209,7	-30,367
210,2	5,633
210,6	14,833
211,1	12,233
211,5	-5,167
212	-9,567
212,5	7,833
212,9	-21,967
213,4	-15,567
213,9	-11,167
214,3	11,033
214,8	-3,967
215,3	4,033
215,7	26,833
216,2	10,633
216,7	-4,767
217,1	-7,367
217,6	3,433
218,1	-6,967
218,5	17,033
219	7,433
219,5	-7,567
219,9	-17,767
220,4	-14,367
220,9	-0,567
221,3	-2,767
221,8	9,433
222,3	-4,367
222,7	17,033
223,2	31,033
223,6	14,633
224,1	-12,967
224,6	-2,367
225	-33,967
225,5	1,633
226	-7,167
226,4	6,233
226,9	4,433
227,4	27,233
227,8	11,633
228,3	-3,367
228,8	32,433
229,2	12,833
229,7	34,833
230,2	-38,567
230,6	8,033
231,1	-22,567
231,5	7,033
232	1,833
232,5	29,033
232,9	0,833
233,4	21,633
233,9	17,233
234,3	24,433
234,8	-22,567
235,3	7,033
235,7	-1,967
236,2	-17,767
236,7	10,633
237,1	-27,967
237,6	6,633
238,1	16,033
238,5	10,633
239	1,033
239,4	0,433
239,9	-12,567
240,4	15,233
240,8	-31,967
241,3	-3,367
241,8	-15,767
242,2	-16,367
242,7	-0,367
243,2	-31,767
243,6	20,833
244,1	-10,567
244,6	-5,367
245	15,633
245,5	3,633
245,9	-24,967
246,4	-4,767
246,9	22,433
247,3	-15,567
247,8	22,433
248,3	15,433
248,7	-0,567
249,2	-18,767
249,7	1,233
250,1	-8,767
250,6	-6,567
251	-20,767
251,5	25,233
252	-8,567
252,4	-6,967
252,9	-5,567
253,4	-0,367
253,8	15,033
254,3	-5,967
254,8	-22,567
255,2	3,433
255,7	13,433
256,1	-11,167
256,6	-37,967
257,1	6,833
257,5	4,033
258	17,233
258,5	21,033
258,9	-1,167
259,4	-4,167
259,9	18,633
260,3	-17,167
260,8	-2,967
261,2	14,233
261,7	-1,167
262,2	12,433
262,6	-3,767
263,1	-39,967
263,6	-10,167
264	18,633
264,5	22,033
264,9	7,433
265,4	21,233
265,9	35,633
266,3	-22,167
266,8	13,033
267,3	-26,367
267,7	-0,967
268,2	9,633
268,7	27,833
269,1	-23,367
269,6	18,433
270	6,633
270,5	-3,767
271	1,433
271,4	0,033
271,9	-11,767
272,4	-18,367
272,8	2,833
273,3	0,833
273,7	-20,567
274,2	27,033
274,7	8,833
275,1	1,633
275,6	-14,967
276,1	1,233
276,5	-7,367
277	-17,367
277,4	-12,167
277,9	2,633
278,4	-16,167
278,8	-3,767
279,3	-1,767
279,8	19,433
280,2	4,433
280,7	-9,367
281,1	10,233
281,6	-43,967
282,1	29,033
282,5	18,233
283	-33,967
283,4	-16,967
283,9	13,233
284,4	-12,967
284,8	-8,567
285,3	-6,767
285,8	-7,767
286,2	-4,167
286,7	2,033
287,1	-4,967
287,6	22,833
288,1	-17,567
288,5	11,433
289	8,833
289,5	-27,967
289,9	-13,767
290,4	-13,367
290,8	-7,367
291,3	22,833
291,8	12,433
292,2	-6,767
292,7	1,833
293,1	6,433
293,6	14,033
294,1	1,033
294,5	20,033
295	-3,167
295,5	-11,567
295,9	22,833
296,4	6,833
296,8	-13,767
297,3	14,233
297,8	0,233
298,2	-37,367
298,7	23,233
299,1	9,033
299,6	-29,767
300,1	-10,967
300,5	-11,167
301	5,433
301,5	5,433
301,9	-32,567
302,4	-7,967
302,8	-16,567
303,3	-19,967
303,8	-6,967
304,2	4,433
304,7	-5,167
305,1	2,833
305,6	-6,567
306,1	-17,567
306,5	-30,167
307	17,233
307,4	3,633
307,9	-5,567
308,4	-12,367
308,8	0,433
309,3	-15,567
309,8	-7,367
310,2	19,233
310,7	-5,367
311,1	-2,167
311,6	4,233
312,1	16,433
312,5	7,633
313	20,433
313,4	-1,967
313,9	-13,167
314,4	-16,567
314,8	-13,767
315,3	16,033
315,7	16,633
316,2	12,233
316,7	1,033
317,1	10,833
317,6	-11,567
318	-4,967
318,5	2,033
319	-30,167
319,4	-3,167
319,9	-25,767
320,3	-10,367
320,8	3,833
321,3	-16,567
321,7	28,433
322,2	8,633
322,6	5,233
323,1	-0,367
323,6	-40,767
324	-6,567
324,5	-26,767
324,9	-27,967
325,4	12,833
325,9	-38,967
326,3	19,033
326,8	-14,367
327,2	10,233
327,7	0,233
328,2	-14,767
328,6	-19,167
329,1	36,033
329,5	-27,567
330	7,633
330,5	1,633
330,9	-24,767
331,4	-7,567
331,8	7,633
332,3	21,833
332,8	14,033
333,2	26,033
333,7	-7,767
334,1	6,033
334,6	-1,967
335,1	-17,367
335,5	15,233
336	14,233
336,4	-0,767
336,9	-23,967
337,4	13,633
337,8	-0,167
338,3	10,433
338,7	6,633
339,2	-18,367
339,7	1,633
340,1	-10,967
340,6	-6,767
341	-21,167
341,5	21,233
342	26,033
342,4	48,833
342,9	3,833
343,3	10,833
343,8	-2,167
344,2	-9,167
344,7	18,033
345,2	19,633
345,6	-6,167
346,1	25,433
346,5	3,633
347	1,233
347,5	-2,567
347,9	28,033
348,4	28,033
348,8	-1,967
349,3	-8,167
349,8	10,433
350,2	3,633
350,7	15,633
351,1	-2,367
351,6	15,433
352	14,433
352,5	4,233
353	35,233
353,4	26,233
353,9	53,233
354,3	35,633
354,8	77,633
355,3	69,633
355,7	71,433
356,2	86,633
356,6	125,433
357,1	135,433
357,5	145,433
358	204,033
358,5	247,033
358,9	292,233
359,4	307,633
359,8	373,633
360,3	420,633
360,8	451,833
361,2	572,433
361,7	638,833
362,1	727,233
362,6	788,833
363	893,833
363,5	943,233
364	1100,633
364,4	1209,833
364,9	1321,233
365,3	1427,233
365,8	1506,433
366,3	1645,833
366,7	1701,033
367,2	1788,633
367,6	1857,033
368,1	1889,033
368,5	1941,033
369	1966,233
369,5	1949,433
369,9	1935,433
370,4	1889,433
370,8	1876,833
371,3	1759,833
371,7	1746,833
372,2	1632,633
372,7	1539,633
373,1	1438,833
373,6	1364,433
374	1317,633
374,5	1207,433
374,9	1092,033
375,4	1026,033
375,9	954,633
376,3	873,633
376,8	781,033
377,2	743,833
377,7	681,833
378,2	597,433
378,6	550,633
379,1	474,833
379,5	463,433
380	415,033
380,4	386,633
380,9	375,233
381,4	298,233
381,8	305,033
382,3	276,033
382,7	278,433
383,2	240,633
383,6	241,633
384,1	193,833
384,6	173,633
385	149,833
385,5	160,033
385,9	149,233
386,4	133,033
386,8	134,633
387,3	120,433
387,7	120,433
388,2	97,633
388,7	76,233
389,1	93,833
389,6	79,033
390	76,833
390,5	77,233
390,9	44,433
391,4	50,033
391,9	54,433
392,3	67,033
392,8	25,033
393,2	52,833
393,7	29,633
394,1	25,033
394,6	14,033
395,1	33,433
395,5	32,233
396	18,233
396,4	64,633
396,9	30,433
397,3	20,833
397,8	10,233
398,2	17,233
398,7	41,433
399,2	13,433
399,6	-9,167
400,1	12,233
400,5	2,233
401	18,833
401,4	38,433
401,9	-2,167
402,4	2,233
402,8	-16,967
403,3	1,633
403,7	35,633
404,2	6,633
404,6	20,833
405,1	18,833
405,5	-10,367
406	-8,767
406,5	18,233
406,9	1,233
407,4	5,033
407,8	13,233
408,3	24,633
408,7	19,233
409,2	22,033
409,6	-42,767
410,1	-15,367
410,6	13,233
411	5,233
411,5	19,433
411,9	24,033
412,4	31,233
412,8	15,633
413,3	-0,167
413,7	29,833
414,2	16,433
414,7	49,633
415,1	38,433
415,6	48,033
416	20,833
416,5	2,833
416,9	70,033
417,4	8,433
417,8	41,233
418,3	14,433
418,8	41,833
419,2	10,033
419,7	57,433
420,1	19,233
420,6	40,433
421	27,033
421,5	32,433
421,9	61,033
422,4	39,433
422,8	36,233
423,3	3,233
423,8	45,633
424,2	39,633
424,7	21,033
425,1	56,433
425,6	8,433
426	25,433
426,5	40,833
426,9	51,833
427,4	36,433
427,9	78,833
428,3	48,833
428,8	22,833
429,2	34,033
429,7	74,633
430,1	22,833
430,6	36,233
431	26,433
431,5	9,233
431,9	46,233
432,4	-1,967
432,8	41,033
433,3	66,033
433,8	25,833
434,2	22,633
434,7	58,033
435,1	4,433
435,6	25,633
436	26,833
436,5	-1,967
436,9	32,233
437,4	31,833
437,8	38,833
438,3	5,433
438,8	27,233
439,2	58,633
439,7	25,633
440,1	43,833
440,6	38,833
441	28,433
441,5	31,833
441,9	16,433
442,4	22,633
442,8	3,233
443,3	19,433
443,7	12,433
444,2	11,433
444,7	24,033
445,1	29,433
445,6	9,233
446	37,033
446,5	35,233
446,9	29,633
447,4	35,833
447,8	10,833
448,3	22,033
448,7	45,833
449,2	7,033
449,6	-27,767
450,1	41,233
450,6	7,433
451	28,233
451,5	23,633
451,9	19,033
452,4	26,033
452,8	24,033
453,3	2,633
453,7	50,833
454,2	23,433
454,6	7,033
455,1	49,833
455,5	17,233
456	25,033
456,4	33,833
456,9	25,233
457,3	9,833
457,8	30,833
458,3	16,633
458,7	8,433
459,2	18,433
459,6	47,033
460,1	4,833
460,5	18,033
461	-6,967
461,4	23,033
461,9	1,433
462,3	26,433
462,8	-18,967
463,2	23,433
463,7	30,433
464,1	5,633
464,6	17,033
465	-9,567
465,5	42,633
466	27,233
466,4	-18,767
466,9	-19,367
467,3	31,033
467,8	44,233
468,2	16,833
468,7	6,233
469,1	47,433
469,6	11,033
470	4,833
470,5	45,033
470,9	13,033
471,4	4,233
471,8	1,833
472,3	47,433
472,7	-0,967
473,2	-15,967
473,6	15,033
474,1	9,233
474,5	6,633
475	35,633
475,4	31,433
475,9	27,033
476,4	35,033
476,8	37,033
477,3	-2,367
477,7	28,033
478,2	10,433
478,6	38,833
479,1	7,233
479,5	10,633
480	16,433
480,4	7,433
480,9	1,433
481,3	0,833
481,8	11,233
482,2	5,833
482,7	-12,367
483,1	21,233
483,6	19,633
484	-8,767
484,5	42,433
484,9	-2,967
485,4	-22,767
485,8	54,633
486,3	-7,967
486,7	4,833
487,2	36,233
487,6	46,033
488,1	-1,567
488,5	4,433
489	-14,567
489,4	16,233
489,9	40,033
490,4	40,033
490,8	5,233
491,3	-4,167
491,7	10,233
492,2	6,633
492,6	23,633
493,1	-3,167
493,5	35,433
494	33,833
494,4	25,633
494,9	2,833
495,3	-12,967
495,8	29,833
496,2	3,633
496,7	-4,967
497,1	18,233
497,6	29,233
498	24,833
498,5	-10,167
498,9	24,633
499,4	6,833
499,8	24,233
500,3	16,633
500,7	27,233
501,2	25,633
501,6	24,633
502,1	21,833
502,5	-17,567
503	46,833
503,4	6,633
503,9	19,833
504,3	-2,967
504,8	19,233
505,2	-12,767
505,7	0,033
506,1	-15,167
506,6	-3,767
507	0,033
507,5	34,233
507,9	23,833
508,4	10,633
508,8	7,633
509,3	10,433
509,7	6,233
510,2	-8,367
510,6	38,833
511,1	23,433
511,5	-7,567
512	-6,167
512,4	23,833
512,9	4,833
513,3	19,833
513,8	-7,167
514,2	25,033
514,7	-14,967
515,1	23,433
515,6	31,833
516	36,433
516,5	6,833
516,9	4,033
517,4	-0,567
517,8	4,833
518,3	9,833
518,7	24,033
519,2	7,633
519,6	-8,367
520,1	-32,167
520,5	26,033
521	35,633
521,4	-13,367
521,9	9,433
522,3	9,233
522,8	12,433
523,2	-9,767
523,7	2,033
524,1	23,633
524,6	-16,567
525	1,833
525,5	44,433
525,9	-20,367
526,4	-5,967
526,8	-8,767
527,3	22,233
527,7	-7,767
528,2	-0,167
528,6	-9,967
529,1	-3,367
529,5	12,033
530	20,233
530,4	1,833
530,9	-7,967
531,3	24,233
531,8	20,233
532,2	-40,367
532,6	-14,567
533,1	7,233
533,5	26,033
534	-33,367
534,4	13,633
534,9	-13,567
535,3	12,633
535,8	4,633
536,2	19,633
536,7	-10,367
537,1	8,033
537,6	12,233
538	26,833
538,5	-4,367
538,9	29,833
539,4	6,233
539,8	-2,967
540,3	14,833
540,7	-9,167
541,2	4,633
541,6	6,833
542,1	9,633
542,5	32,833
543	3,433
543,4	0,633
543,9	49,033
544,3	22,033
544,8	-28,167
545,2	32,033
545,7	-9,767
546,1	4,433
546,5	-8,767
547	11,433
547,4	3,433
547,9	8,833
548,3	10,633
548,8	3,033
549,2	-2,167
549,7	15,633
550,1	17,233
550,6	20,633
551	8,633
551,5	9,833
551,9	22,833
552,4	-19,567
552,8	19,833
553,3	-28,967
553,7	-2,567
554,2	-15,567
554,6	1,633
555,1	4,233
555,5	-29,967
555,9	38,633
556,4	10,433
556,8	0,633
557,3	21,633
557,7	-1,167
558,2	-13,367
558,6	8,033
559,1	32,233
559,5	-8,367
560	0,633
560,4	-6,967
560,9	-31,567
561,3	23,633
561,8	2,433
562,2	-22,167
562,7	5,633
563,1	7,433
563,6	-1,367
564	-3,567
564,4	-0,367
564,9	-8,367
565,3	-15,167
565,8	-12,167
566,2	-10,367
566,7	-0,567
567,1	-6,367
567,6	18,233
568	-16,367
568,5	8,833
568,9	-13,167
569,4	-16,367
569,8	-15,567
570,3	-26,567
570,7	-8,567
571,1	-7,567
571,6	24,633
572	-21,367
572,5	-21,767
572,9	-5,167
573,4	-16,567
573,8	-25,567
574,3	20,033
574,7	9,833
575,2	3,033
575,6	9,633
576,1	11,233
576,5	15,633
576,9	21,033
577,4	-17,567
577,8	15,833
578,3	12,233
578,7	-12,167
579,2	3,233
579,6	10,233
580,1	-4,967
580,5	8,233
581	-1,567
581,4	17,433
581,9	16,833
582,3	-22,167
582,7	13,233
583,2	4,633
583,6	-25,567
584,1	0,633
584,5	27,033
585	19,233
585,4	-15,767
585,9	15,633
586,3	17,033
586,8	14,033
587,2	1,433
587,6	-0,167
588,1	13,233
588,5	10,633
589	8,433
589,4	-11,967
589,9	16,433
590,3	10,033
590,8	17,433
591,2	-14,167
591,7	10,033
592,1	6,433
592,5	-14,967
593	-11,567
593,4	16,433
593,9	3,433
594,3	25,633
594,8	-4,767
595,2	23,033
595,7	14,633
596,1	-15,167
596,6	3,633
597	-5,167
597,4	7,433
597,9	23,633
598,3	4,233
598,8	10,833
599,2	5,633
599,7	-14,767
600,1	18,833
600,6	-0,167
601	13,233
601,4	11,633
601,9	11,233
602,3	5,033
602,8	-26,167
603,2	14,033
603,7	6,833
604,1	18,633
604,6	-30,367
605	-27,967
605,4	13,033
605,9	-4,167
606,3	-7,567
606,8	-2,367
607,2	14,233
607,7	-0,767
608,1	-4,567
608,6	30,633
609	-33,967
609,4	19,233
609,9	-14,767
610,3	14,833
610,8	16,233
611,2	-11,967
611,7	-18,967
612,1	-10,967
612,6	-8,567
613	-5,767
613,4	11,633
613,9	-19,367
614,3	-7,967
614,8	-2,567
615,2	29,433
615,7	-4,767
616,1	6,633
616,6	21,833
617	-13,167
617,4	-48,367
617,9	10,833
618,3	-8,967
618,8	10,833
619,2	-4,767
619,7	-9,967
620,1	-2,967
620,5	-15,967
621	12,633
621,4	9,233
621,9	18,033
622,3	1,033
622,8	5,633
623,2	21,233
623,6	6,033
624,1	9,633
624,5	13,033
625	17,233
625,4	11,433
625,9	-6,567
626,3	-2,967
626,8	4,233
627,2	-16,967
627,6	-1,167
628,1	-3,167
628,5	18,233
629	8,633
629,4	32,433
629,9	-0,167
630,3	-41,767
630,7	-2,967
631,2	7,633
631,6	-15,567
632,1	2,833
632,5	-40,367
633	21,233
633,4	-6,567
633,8	-5,167
634,3	14,433
634,7	20,633
635,2	-4,367
635,6	-9,167
636,1	11,433
636,5	0,033
636,9	-19,767
637,4	51,033
637,8	-4,767
638,3	-3,567
638,7	8,033
639,2	-21,767
639,6	15,633
640	10,633
640,5	-3,967
640,9	15,633
641,4	-3,967
641,8	8,433
642,2	6,833
642,7	9,433
643,1	-14,367
643,6	14,033
644	-3,567
644,5	-5,567
644,9	-0,367
645,3	26,633
645,8	-8,767
646,2	26,433
646,7	27,033
647,1	-11,167
647,6	0,233
648	-3,367
648,4	38,833
648,9	20,833
649,3	30,033
649,8	-8,367
650,2	-11,367
650,6	-1,767
651,1	-41,167
651,5	6,633
652	7,833
652,4	-3,167
652,9	-4,367
653,3	1,033
653,7	-32,167
654,2	-8,567
654,6	4,233
655,1	-21,767
655,5	-2,167
655,9	-17,167
656,4	-4,367
656,8	13,833
657,3	-2,367
657,7	0,033
658,2	3,633
658,6	4,033
659	-8,567
659,5	-25,767
659,9	-2,967
660,4	4,233
660,8	17,433
661,2	-5,567
661,7	21,433
662,1	-14,767
662,6	4,433
663	-5,367
663,4	26,633
663,9	-4,367
664,3	-0,767
664,8	-16,367
665,2	-6,567
665,6	9,433
666,1	-29,967
666,5	17,433
667	-10,967
667,4	3,633
667,9	-4,767
668,3	4,233
668,7	30,033
669,2	-24,167
669,6	17,633
670,1	-13,167
670,5	13,233
670,9	18,633
671,4	-29,767
671,8	7,433
672,3	1,233
672,7	34,233
673,1	-7,767
673,6	-28,567
674	13,233
674,5	10,033
674,9	-21,767
675,3	8,833
675,8	-17,767
676,2	-37,367
676,7	12,833
677,1	8,433
677,5	-10,367
678	12,633
678,4	28,233
678,9	13,633
679,3	-39,167
679,7	8,033
680,2	-12,367
680,6	-26,367
681,1	-11,567
681,5	25,033
681,9	5,433
682,4	-9,767
682,8	12,233
683,3	-15,367
683,7	5,033
684,1	3,033
684,6	9,033
685	4,833
685,5	-22,167
685,9	-4,567
686,3	-12,767
686,8	-24,167
687,2	7,633
687,7	-11,967
688,1	-7,567
688,5	4,433
689	-18,567
689,4	-10,167
689,9	13,233
690,3	16,433
690,7	-22,167
691,2	3,033
691,6	12,433
692	27,633
692,5	-10,567
692,9	9,633
693,4	5,833
693,8	-2,367
694,2	-7,967
694,7	-33,367
695,1	22,033
695,6	-7,567
696	-5,767
696,4	17,833
696,9	-22,567
697,3	6,433
697,8	5,633
698,2	-23,167
698,6	18,033
699,1	-17,367
699,5	-22,967
699,9	-19,167
700,4	-14,567
700,8	-19,767
701,3	10,033
701,7	14,033
702,1	20,233
702,6	14,633
703	-11,767
703,5	-21,367
703,9	-5,967
704,3	4,233
704,8	-35,167
705,2	7,033
705,6	-2,967
706,1	-5,367
706,5	15,833
707	20,633
707,4	1,233
707,8	9,633
708,3	14,033
708,7	14,033
709,2	7,633
709,6	-3,967
710	-18,167
710,5	-7,167
710,9	-10,367
711,3	5,233
711,8	8,833
712,2	24,633
712,7	0,833
713,1	-7,567
713,5	-11,167
714	11,033
714,4	-2,967
714,8	-2,567
715,3	-1,967
715,7	29,033
716,2	18,033
716,6	15,433
717	-34,167
717,5	-13,367
717,9	-0,367
718,3	-1,367
718,8	-4,167
719,2	20,033
719,7	12,633
720,1	14,633
720,5	1,433
721	9,633
721,4	-14,767
721,8	22,233
722,3	-1,767
722,7	-2,567
723,2	-2,367
723,6	-16,367
724	9,633
724,5	-6,167
724,9	6,633
725,3	27,633
725,8	-14,367
726,2	7,833
726,7	-16,167
727,1	23,233
727,5	-7,767
728	10,433
728,4	12,433
728,8	15,033
729,3	21,633
729,7	-20,767
730,1	15,233
730,6	-27,367
731	12,433
731,5	-25,967
731,9	-9,367
732,3	8,833
732,8	-9,367
733,2	1,633
733,6	-5,367
734,1	3,433
734,5	6,433
734,9	21,233
735,4	-6,767
735,8	2,633
736,3	-10,567
736,7	23,433
737,1	43,833
737,6	12,433
738	-26,367
738,4	-18,167
738,9	-29,167
739,3	-7,167
739,7	9,833
740,2	19,033
740,6	-22,567
741,1	18,433
741,5	-2,967
741,9	-6,167
742,4	-1,567
742,8	-15,767
743,2	9,233
743,7	-0,167
744,1	12,033
744,5	24,833
745	-30,767
745,4	35,233
745,8	-15,767
746,3	-15,167
746,7	22,633
747,2	-23,367
747,6	-11,167
748	-3,767
748,5	2,033
748,9	18,633
749,3	-10,767
749,8	28,233
750,2	-4,767
750,6	-1,167
751,1	1,233
751,5	8,833
751,9	-31,567
752,4	4,033
752,8	-12,767
753,3	10,633
753,7	10,433
754,1	14,233
754,6	-5,567
755	-14,167
755,4	-2,967
755,9	7,233
756,3	14,033
756,7	-30,767
757,2	7,233
757,6	6,433
758	19,033
758,5	2,433
758,9	12,033
759,3	-10,767
759,8	-2,567
760,2	-3,167
760,6	9,633
761,1	-25,767
761,5	-17,367
761,9	-10,967
762,4	-4,967
762,8	39,433
763,3	5,033
763,7	1,033
764,1	-4,567
764,6	16,633
765	-1,167
765,4	10,433
765,9	0,033
766,3	-8,367
766,7	16,033
767,2	6,433
767,6	-4,367
768	-8,767
768,5	-7,167
768,9	9,633
769,3	-1,967
769,8	2,233
770,2	-7,967
770,6	-6,767
771,1	-34,367
771,5	-6,967
771,9	0,633
772,4	18,833
772,8	-1,967
773,2	-4,967
773,7	1,233
774,1	-3,567
774,5	4,233
775	-18,567
775,4	1,633
775,8	-1,567
776,3	-14,167
776,7	0,833
777,1	-7,167
777,6	-10,367
778	-20,367
778,4	-24,967
778,9	4,033
779,3	12,633
779,7	2,433
780,2	-1,567
780,6	8,233
781	41,433
781,5	2,633
781,9	-9,767
782,3	-5,967
782,8	-14,967
783,2	-3,567
783,6	20,433
784,1	-1,967
784,5	-29,167
784,9	-9,967
785,4	-2,567
785,8	5,233
786,2	-22,167
786,7	19,833
787,1	3,833
787,5	1,433
788	14,433
788,4	-23,167
788,8	11,433
789,3	24,033
789,7	-5,167
790,1	-1,567
790,6	21,233
791	-7,967
791,4	21,033
791,9	26,833
792,3	-5,167
792,7	3,433
793,2	-13,567
793,6	-11,567
794	8,033
794,5	-10,367
794,9	7,433
795,3	-14,767
795,8	-4,567
796,2	-3,367
796,6	-5,367
797,1	33,033
797,5	-19,367
797,9	1,233
798,4	4,033
798,8	14,633
799,2	-9,767
799,7	-8,967
800,1	-12,967
800,5	20,833
801	-11,767
801,4	-18,567
801,8	-38,367
802,2	2,833
802,7	-2,967
803,1	-28,567
803,5	12,433
804	-0,567
804,4	23,833
804,8	-23,767
805,3	-36,367
805,7	19,633
806,1	-10,367
806,6	-2,967
807	17,433
807,4	7,833
807,9	-25,167
808,3	4,833
808,7	-22,367
809,2	-4,167
809,6	15,433
810	10,833
810,4	29,033
810,9	11,033
811,3	-3,167
811,7	-3,367
812,2	-16,367
812,6	-29,167
813	26,833
813,5	1,833
813,9	-2,367
814,3	-20,567
814,8	-31,767
815,2	-7,767
815,6	9,833
816,1	10,833
816,5	-2,967
816,9	-16,967
817,3	-9,167
817,8	-21,567
818,2	17,633
818,6	-18,167
819,1	-8,567
819,5	31,433
819,9	-6,767
820,4	-15,767
820,8	-22,367
821,2	5,833
821,7	-27,567
822,1	-5,167
822,5	-14,967
822,9	-4,367
823,4	-5,567
823,8	-7,967
824,2	-19,567
824,7	2,633
825,1	8,233
825,5	14,233
826	8,233
826,4	-11,167
826,8	20,833
827,3	14,233
827,7	16,633
828,1	-10,167
828,5	-4,967
829	-3,367
829,4	13,033
829,8	5,633
830,3	-35,567
830,7	-8,767
831,1	-19,367
831,6	-14,167
832	-10,167
832,4	-1,367
832,8	33,233
833,3	-10,567
833,7	4,233
834,1	-6,367
834,6	-7,967
835	-4,967
835,4	-9,967
835,8	-43,967
836,3	-2,767
836,7	9,233
837,1	12,833
837,6	-12,967
838	35,033
838,4	-17,967
838,9	4,233
839,3	18,033
839,7	7,633
840,1	9,033
840,6	-0,167
841	-35,767
841,4	-37,167
841,9	9,433
842,3	30,833
842,7	-6,567
843,1	24,033
843,6	-7,167
844	-13,167
844,4	16,633
844,9	15,433
845,3	8,633
845,7	-3,167
846,2	-33,767
846,6	9,033
847	-15,367
847,4	-24,567
847,9	3,433
848,3	11,233
848,7	3,633
849,2	-10,567
849,6	16,033
850	7,833
850,4	17,833
850,9	8,033
851,3	-40,367
851,7	30,833
852,2	-7,567
852,6	28,433
853	5,633
853,4	-26,167
853,9	-11,767
854,3	-12,367
854,7	16,033
855,2	27,033
855,6	4,033
856	-5,567
856,4	-12,167
856,9	-9,767
857,3	6,633
857,7	-6,767
858,2	-25,567
858,6	10,233
859	-12,367
859,4	2,633
859,9	-5,767
860,3	16,433
860,7	30,633
861,1	36,633
861,6	-19,967
862	3,233
862,4	36,233
862,9	25,833
863,3	7,033
863,7	4,633
864,1	16,033
864,6	12,033
865	32,233
865,4	10,433
865,9	-2,967
866,3	9,633
866,7	-3,167
867,1	-17,767
867,6	10,433
868	10,633
868,4	-20,967
868,8	-1,767
869,3	-1,567
869,7	13,433
870,1	15,433
870,6	7,233
871	1,433
871,4	-6,567
871,8	31,233
872,3	-364,767
872,7	-12,367
873,1	-0,967
873,5	24,833
874	-7,967
874,4	9,433
874,8	13,833
875,3	6,233
875,7	11,633
876,1	26,233
876,5	32,033
877	2,433
877,4	9,433
877,8	34,633
878,2	-21,767
878,7	40,633
879,1	-5,967
879,5	-2,567
879,9	-20,567
880,4	-6,767
880,8	-21,167
881,2	42,433
881,7	27,833
882,1	-19,567
882,5	0,633
882,9	-2,767
883,4	-9,367
883,8	19,833
884,2	-31,567
884,6	1,033
885,1	-14,767
885,5	-6,367
885,9	-16,967
886,3	6,433
886,8	-32,367
887,2	-26,767
887,6	10,633
888	-6,967
888,5	-2,567
888,9	1,233
889,3	16,033
889,8	1,433
890,2	1,033
890,6	-30,367
891	-5,767
891,5	-13,967
891,9	13,633
892,3	-13,967
892,7	12,033
893,2	-9,167
893,6	-3,367
894	18,833
894,4	-17,367
894,9	-7,167
895,3	-0,367
895,7	4,433
896,1	5,833
896,6	6,433
897	-15,767
897,4	-0,167
897,8	5,633
898,3	-23,967
898,7	9,833
899,1	16,233
899,5	-5,167
900	-3,767
900,4	-3,767
900,8	-1,567
901,2	7,033
901,7	-5,767
902,1	-9,967
902,5	-5,967
902,9	0,033
903,4	5,033
903,8	-16,567
904,2	18,833
904,6	-10,567
905,1	-22,167
905,5	17,033
905,9	13,833
906,3	-10,567
906,8	-8,967
907,2	-6,367
907,6	-2,967
908	-11,367
908,5	21,233
908,9	-13,367
909,3	-10,367
909,7	0,233
910,2	5,833
910,6	16,233
911	8,233
911,4	1,433
911,9	22,033
912,3	-6,767
912,7	7,633
913,1	-11,567
913,6	-17,167
914	-13,967
914,4	-18,967
914,8	-25,767
915,3	-35,967
915,7	-5,967
916,1	-12,967
916,5	-4,567
916,9	28,033
917,4	-16,567
917,8	-18,167
918,2	-3,767
918,6	-13,167
919,1	-19,367
919,5	-27,367
919,9	-9,967
920,3	10,233
920,8	-33,767
921,2	13,033
921,6	29,233
922	-7,167
922,5	27,233
922,9	5,833
923,3	-6,967
923,7	18,433
924,2	-9,567
924,6	2,833
925	34,233
925,4	15,033
925,8	11,433
926,3	-10,367
926,7	-7,767
927,1	-6,767
927,5	8,433
928	14,833
928,4	11,633
928,8	-17,767
929,2	30,633
929,7	17,433
930,1	19,833
930,5	29,433
930,9	15,233
931,3	4,833
931,8	-15,767
932,2	-15,367
932,6	15,233
933	12,033
933,5	9,033
933,9	16,233
934,3	-6,167
934,7	22,633
935,2	-8,967
935,6	7,233
936	-4,567
936,4	-5,767
936,8	6,633
937,3	-15,367
937,7	-15,967
938,1	30,233
938,5	-0,167
939	-22,367
939,4	2,033
939,8	2,833
940,2	-11,167
940,6	-16,767
941,1	3,033
941,5	5,433
941,9	13,833
942,3	-23,167
942,8	-4,167
943,2	-1,767
943,6	4,833
944	-5,767
944,4	-2,567
944,9	19,833
945,3	9,233
945,7	-11,967
946,1	-2,167
946,6	13,433
947	6,633
947,4	-7,967
947,8	-19,367
948,2	0,033
948,7	-8,167
949,1	-6,567
949,5	-8,967
949,9	0,033
950,3	-2,767
950,8	-0,367
951,2	33,033
951,6	-3,767
952	0,233
952,5	-20,367
952,9	-11,967
953,3	-3,967
953,7	-3,967
954,1	-7,167
954,6	29,833
955	0,233
955,4	16,633
955,8	-28,567
956,2	-21,167
956,7	-27,167
957,1	-38,367
957,5	26,633
957,9	29,233
958,3	5,433
958,8	14,233
959,2	-2,567
959,6	-24,767
960	15,033
960,5	1,833
960,9	1,233
961,3	1,633
961,7	-27,767
962,1	10,833
962,6	10,433
963	-20,967
963,4	-23,367
963,8	-4,767
964,2	4,033
964,7	-9,567
965,1	-6,567
965,5	-4,167
965,9	12,633
966,3	8,833
966,8	9,233
967,2	-1,367
967,6	11,033
968	4,433
968,4	0,633
968,9	-20,767
969,3	-4,567
969,7	21,233
970,1	-17,567
970,5	6,833
971	-4,367
971,4	4,833
971,8	-13,367
972,2	4,433
972,6	-11,767
973,1	22,633
973,5	8,433
973,9	6,433
974,3	9,033
974,7	5,833
975,2	-3,567
975,6	-19,367
976	20,433
976,4	26,833
976,8	-23,367
977,3	-0,367
977,7	2,233
978,1	-0,967
978,5	-6,967
978,9	-0,367
979,4	-2,367
979,8	27,833
980,2	-12,167
980,6	33,233
981	-3,567
981,5	-30,567
981,9	8,033
982,3	-14,367
982,7	7,433
983,1	7,233
983,6	-5,967
984	18,833
984,4	0,433
984,8	-6,567
985,2	-28,167
985,6	31,633
986,1	3,233
986,5	11,433
986,9	4,633
987,3	14,633
987,7	42,233
988,2	0,633
988,6	29,833
989	-18,167
989,4	-20,567
989,8	13,633
990,3	6,833
990,7	42,633
991,1	13,433
991,5	17,433
991,9	-22,167
992,3	20,233
992,8	-8,567
993,2	37,433
993,6	-24,567
994	-9,967
994,4	12,633
994,9	-18,767
995,3	-43,567
995,7	14,233
996,1	0,233
996,5	-20,567
996,9	-38,367
997,4	-15,767
997,8	-25,367
998,2	9,833
998,6	-14,567
999	-10,767
999,5	-38,567
999,9	32,433
1000,3	14,833
1000,7	1,233
1001,1	-19,167
1001,5	-27,967
1002	1,233
1002,4	-5,767
1002,8	14,833
1003,2	0,433
1003,6	7,833
1004	-2,967
1004,5	-8,567
1004,9	0,233
1005,3	31,633
1005,7	-10,567
1006,1	9,033
1006,6	-3,567
1007	-1,367
1007,4	-12,167
1007,8	-3,167
1008,2	-10,767
1008,6	11,433
1009,1	-10,367
1009,5	-1,767
1009,9	4,433
1010,3	20,633
1010,7	-5,567
1011,1	17,033
1011,6	-8,167
1012	-34,767
1012,4	-4,167
1012,8	7,233
1013,2	-26,167
1013,6	24,433
1014,1	-4,367
1014,5	21,033
1014,9	1,233
1015,3	-3,367
1015,7	-23,367
1016,1	-7,967
1016,6	-14,567
1017	7,433
1017,4	6,833
1017,8	-8,167
1018,2	24,033
1018,6	-16,367
1019,1	-29,167
1019,5	-13,767
1019,9	-6,967
1020,3	3,033
1020,7	13,233
1021,1	-3,967
1021,6	12,833
1022	-10,967
1022,4	2,633
1022,8	-14,967
1023,2	12,033
1023,6	-6,367
1024,1	3,233
1024,5	3,033
1024,9	10,833
1025,3	-6,167
1025,7	-13,367
1026,1	5,633
1026,6	2,233
1027	0,433
1027,4	13,633
1027,8	18,233
1028,2	-3,567
1028,6	26,033
1029	-32,767
1029,5	25,433
1029,9	14,233
1030,3	17,233
1030,7	8,033
1031,1	12,233
1031,5	14,033
1032	-0,367
1032,4	10,633
1032,8	10,833
1033,2	-36,167
1033,6	-5,167
1034	-6,167
1034,4	11,433
1034,9	-5,767
1035,3	-7,567
1035,7	17,233
1036,1	7,033
1036,5	12,033
1036,9	-16,767
1037,4	-30,567
1037,8	22,433
1038,2	-25,367
1038,6	5,233
1039	-20,567
1039,4	35,033
1039,8	-1,367
1040,3	0,833
1040,7	19,833
1041,1	-25,567
1041,5	25,233
1041,9	-6,767
1042,3	13,833
1042,7	-36,967
1043,2	-19,167
1043,6	7,433
1044	-21,567
1044,4	-16,767
1044,8	14,233
1045,2	-22,367
1045,6	-47,767
1046,1	28,033
1046,5	-5,367
1046,9	17,833
1047,3	-16,367
1047,7	26,233
1048,1	22,233
1048,5	5,633
1049	6,433
1049,4	-7,167
1049,8	-3,367
1050,2	22,433
1050,6	14,433
1051	-8,367
1051,4	-2,567
1051,9	21,433
1052,3	0,033
1052,7	13,833
1053,1	-23,767
1053,5	23,833
1053,9	-10,567
1054,3	-1,767
1054,8	-9,967
1055,2	7,033
1055,6	21,033
1056	-2,767
1056,4	-2,167
1056,8	-20,767
1057,2	-33,567
1057,6	-1,967
1058,1	11,433
1058,5	-15,167
1058,9	4,833
1059,3	11,233
1059,7	4,033
1060,1	34,233
1060,5	10,233
1061	16,833
1061,4	0,833
1061,8	0,833
1062,2	-6,967
1062,6	7,433
1063	-8,567
1063,4	-0,367
1063,8	29,233
1064,3	19,433
1064,7	15,433
1065,1	-13,167
1065,5	50,833
1065,9	-18,567
1066,3	-17,167
1066,7	-4,767
1067,1	-5,767
1067,6	-6,567
1068	14,633
1068,4	28,833
1068,8	-11,767
1069,2	-9,967
1069,6	15,233
1070	-37,967
1070,4	-3,167
1070,9	-7,367
1071,3	-25,967
1071,7	-22,167
1072,1	-4,967
1072,5	5,433
1072,9	3,233
1073,3	27,033
1073,7	6,233
1074,2	20,033
1074,6	10,233
1075	6,833
1075,4	-33,567
1075,8	2,233
1076,2	-14,367
1076,6	12,033
1077	11,433
1077,5	2,833
1077,9	-26,967
1078,3	-12,967
1078,7	-3,567
1079,1	-4,167
1079,5	-12,167
1079,9	16,033
1080,3	0,033
1080,7	-18,767
1081,2	23,833
1081,6	25,433
1082	21,633
1082,4	-3,167
1082,8	-17,167
1083,2	-18,567
1083,6	-1,567
1084	22,033
1084,5	16,033
1084,9	6,233
1085,3	-7,967
1085,7	-0,967
1086,1	-36,367
1086,5	3,233
1086,9	-38,967
1087,3	-10,167
1087,7	-20,567
1088,2	5,433
1088,6	4,833
1089	-4,367
1089,4	-0,767
1089,8	2,833
1090,2	17,433
1090,6	-3,767
1091	-19,167
1091,4	-32,967
1091,9	16,633
1092,3	0,233
1092,7	6,833
1093,1	15,033
1093,5	30,233
1093,9	-0,367
1094,3	-3,967
1094,7	39,233
1095,1	7,633
1095,5	-8,567
1096	-0,767
1096,4	14,633
1096,8	25,233
1097,2	-9,967
1097,6	8,233
1098	-1,167
1098,4	5,033
1098,8	3,033
1099,2	-1,167
1099,6	-7,367
1100,1	-4,367
1100,5	-8,967
1100,9	21,233
1101,3	22,233
1101,7	-4,567
1102,1	-13,767
1102,5	14,833
1102,9	2,233
1103,3	-13,167
1103,7	11,233
1104,2	-18,967
1104,6	19,633
1105	-12,167
1105,4	13,033
1105,8	13,233
1106,2	19,433
1106,6	-17,767
1107	0,833
1107,4	-0,967
1107,8	-1,167
1108,3	1,033
